SpectraSuite Data File
++++++++++++++++++++++++++++++++++++
Date: Tue Sep 13 12:48:55 EDT 2022
User: Laboratoire
Dark Spectrum Present: No
Reference Spectrum Present: No
Number of Sampled Component Spectra: 1
Spectrometers: FLMT00174
Integration Time (usec): 12000 (FLMT00174)
Spectra Averaged: 25 (FLMT00174)
Boxcar Smoothing: 0 (FLMT00174)
Correct for Electrical Dark: No (FLMT00174)
Strobe/Lamp Enabled: No (FLMT00174)
Correct for Detector Non-linearity: No (FLMT00174)
Correct for Stray Light: No (FLMT00174)
Number of Pixels in Processed Spectrum: 3648
>>>>>Begin Processed Spectral Data<<<<<
345.74	3134.29
345.96	3134.29
346.18	3134.29
346.39	3128.56
346.61	3185.74
346.83	3189.67
347.05	3185.33
347.27	3183.53
347.49	3170.83
347.71	3178.53
347.93	3178.86
348.15	3173.86
348.36	3174.92
348.58	3188.77
348.80	3175.17
349.02	3178.37
349.24	3193.85
349.46	3298.70
349.68	3348.18
349.90	3344.82
350.11	3320.82
350.33	3327.87
350.55	3327.38
350.77	3336.14
350.99	3315.25
351.21	3344.74
351.43	3318.28
351.65	3343.27
351.86	3321.72
352.08	3339.91
352.30	3310.83
352.52	3343.51
352.74	3315.33
352.96	3324.67
353.18	3316.89
353.39	3343.68
353.61	3330.00
353.83	3363.09
354.05	3348.84
354.27	3368.99
354.49	3336.47
354.70	3350.72
354.92	3314.76
355.14	3327.21
355.36	3329.59
355.58	3332.54
355.80	3340.16
356.02	3351.46
356.23	3343.10
356.45	3342.78
356.67	3333.36
356.89	3343.27
357.11	3340.16
357.33	3355.39
357.54	3328.19
357.76	3339.58
357.98	3303.05
358.20	3338.68
358.42	3331.55
358.63	3337.04
358.85	3334.99
359.07	3348.02
359.29	3324.18
359.51	3330.73
359.73	3325.25
359.94	3336.14
360.16	3339.66
360.38	3346.14
360.60	3349.49
360.82	3355.47
361.03	3355.47
361.25	3329.18
361.47	3347.61
361.69	3350.31
361.91	3343.43
362.12	3336.47
362.34	3348.02
362.56	3362.36
362.78	3342.86
363.00	3346.05
363.21	3351.30
363.43	3371.86
363.65	3328.44
363.87	3362.68
364.09	3366.61
364.30	3362.44
364.52	3322.13
364.74	3365.55
364.96	3356.78
365.17	3364.16
365.39	3358.59
365.61	3354.49
365.83	3361.29
366.05	3357.19
366.26	3343.92
366.48	3359.41
366.70	3369.48
366.92	3348.18
367.13	3364.40
367.35	3367.43
367.57	3352.28
367.79	3368.50
368.01	3359.08
368.22	3388.16
368.44	3360.55
368.66	3365.47
368.88	3375.54
369.09	3376.45
369.31	3386.60
369.53	3360.55
369.75	3360.23
369.96	3351.05
370.18	3360.23
370.40	3384.88
370.62	3382.34
370.83	3365.80
371.05	3381.85
371.27	3396.27
371.49	3363.42
371.70	3394.22
371.92	3356.29
372.14	3390.04
372.36	3377.02
372.57	3387.50
372.79	3383.08
373.01	3379.80
373.22	3393.65
373.44	3393.57
373.66	3398.97
373.88	3409.62
374.09	3384.88
374.31	3409.05
374.53	3395.53
374.75	3417.49
374.96	3398.65
375.18	3432.15
375.40	3395.53
375.61	3401.76
375.83	3418.55
376.05	3414.87
376.27	3412.98
376.48	3403.48
376.70	3420.11
376.92	3417.57
377.13	3399.79
377.35	3435.10
377.57	3431.17
377.79	3435.18
378.00	3427.07
378.22	3453.69
378.44	3411.26
378.65	3468.19
378.87	3457.30
379.09	3451.81
379.30	3435.67
379.52	3438.62
379.74	3425.60
379.96	3444.11
380.17	3438.62
380.39	3450.25
380.61	3448.45
380.82	3448.12
381.04	3470.98
381.26	3473.85
381.47	3478.60
381.69	3494.65
381.91	3460.00
382.12	3482.28
382.34	3486.13
382.56	3477.61
382.77	3464.67
382.99	3488.51
383.21	3471.23
383.42	3499.41
383.64	3467.78
383.86	3489.66
384.07	3499.00
384.29	3489.90
384.51	3481.38
384.72	3494.41
384.94	3475.16
385.16	3490.80
385.37	3484.58
385.59	3477.45
385.81	3522.59
386.02	3512.35
386.24	3520.38
386.46	3499.16
386.67	3532.09
386.89	3531.60
387.11	3533.81
387.32	3524.88
387.54	3544.05
387.76	3559.45
387.97	3572.15
388.19	3566.25
388.40	3555.19
388.62	3556.01
388.84	3565.84
389.05	3571.33
389.27	3573.71
389.49	3600.66
389.70	3588.04
389.92	3592.87
390.14	3610.98
390.35	3631.95
390.57	3595.09
390.78	3645.14
391.00	3635.72
391.22	3631.62
391.43	3648.09
391.65	3662.83
391.86	3678.07
392.08	3687.82
392.30	3696.50
392.51	3695.44
392.73	3729.84
392.95	3691.50
393.16	3709.44
393.38	3744.10
393.59	3735.74
393.81	3758.84
394.03	3756.63
394.24	3770.31
394.46	3759.25
394.67	3789.23
394.89	3773.67
395.11	3798.74
395.32	3802.26
395.54	3825.20
395.75	3808.40
395.97	3817.58
396.19	3821.84
396.40	3826.34
396.62	3859.93
396.83	3828.64
397.05	3847.31
397.26	3865.25
397.48	3868.94
397.70	3863.86
397.91	3890.89
398.13	3861.16
398.34	3875.41
398.56	3911.37
398.78	3877.62
398.99	3936.36
399.21	3884.51
399.42	3916.04
399.64	3875.99
399.85	3907.20
400.07	3906.30
400.29	3935.13
400.50	3906.38
400.72	3912.85
400.93	3904.49
401.15	3922.68
401.36	3921.04
401.58	3949.22
401.79	3927.18
402.01	3962.00
402.23	3927.84
402.44	3962.57
402.66	3954.14
402.87	3970.19
403.09	3941.52
403.30	3965.69
403.52	3951.51
403.73	3956.35
403.95	3966.83
404.16	3982.15
404.38	3971.01
404.60	3988.21
404.81	4001.16
405.03	4001.08
405.24	4026.80
405.46	4005.66
405.67	4005.99
405.89	4053.91
406.10	4020.57
406.32	4045.15
406.53	4052.27
406.75	4094.79
406.96	4088.97
407.18	4066.12
407.39	4096.92
407.61	4105.52
407.82	4104.70
408.04	4142.88
408.25	4140.01
408.47	4152.87
408.68	4182.77
408.90	4167.04
409.12	4197.11
409.33	4213.49
409.55	4206.86
409.76	4225.45
409.98	4227.25
410.19	4241.51
410.41	4271.74
410.62	4300.16
410.84	4287.30
411.05	4316.46
411.27	4364.79
411.48	4361.52
411.70	4346.69
411.91	4376.84
412.12	4409.52
412.34	4385.11
412.55	4415.01
412.77	4431.07
412.98	4478.91
413.20	4492.59
413.41	4492.01
413.63	4489.48
413.84	4513.56
414.06	4550.83
414.27	4573.69
414.49	4609.08
414.70	4579.91
414.92	4622.59
415.13	4613.42
415.35	4637.75
415.56	4652.25
415.78	4677.89
415.99	4680.26
416.21	4678.22
416.42	4722.04
416.63	4761.86
416.85	4756.69
417.06	4741.87
417.28	4694.44
417.49	4824.11
417.71	4787.09
417.92	4774.31
418.14	4797.49
418.35	4836.89
418.57	4841.56
418.78	4858.93
418.99	4836.81
419.21	4864.34
419.42	4886.86
419.64	4871.46
419.85	4857.70
420.07	4937.24
420.28	4900.54
420.50	4882.28
420.71	4907.18
420.92	4896.20
421.14	4924.87
421.35	4919.06
421.57	4938.72
421.78	4923.64
422.00	4942.90
422.21	4933.56
422.42	4960.18
422.64	4928.97
422.85	4945.52
423.07	4981.64
423.28	4967.96
423.50	4967.55
423.71	4996.31
423.92	5030.30
424.14	4994.83
424.35	4980.25
424.57	5009.90
424.78	5007.12
424.99	5013.67
425.21	5016.54
425.42	5033.83
425.64	5030.06
425.85	5004.74
426.06	4996.80
426.28	5015.64
426.49	5077.57
426.71	5027.44
426.92	5058.89
427.13	5064.54
427.35	5112.88
427.56	5122.22
427.78	5081.75
427.99	5125.49
428.20	5138.03
428.42	5141.47
428.63	5177.18
428.84	5088.38
429.06	5134.99
429.27	5168.50
429.49	5188.73
429.70	5221.66
429.91	5180.95
430.13	5253.61
430.34	5225.92
430.56	5262.13
430.77	5305.71
430.98	5270.82
431.20	5313.17
431.41	5347.00
431.62	5336.84
431.84	5310.06
432.05	5349.70
432.26	5352.16
432.48	5349.29
432.69	5436.46
432.91	5432.44
433.12	5435.88
433.33	5462.59
433.55	5539.84
433.76	5575.96
433.97	5503.96
434.19	5525.99
434.40	5605.70
434.61	5635.35
434.83	5652.07
435.04	5596.53
435.25	5662.31
435.47	5706.62
435.68	5674.84
435.89	5776.50
436.11	5756.43
436.32	5803.78
436.53	5825.90
436.75	5810.25
436.96	5833.84
437.17	5832.86
437.39	5864.48
437.60	5893.56
437.81	5916.42
438.03	5949.51
438.24	5967.37
438.45	6070.83
438.67	6022.91
438.88	6074.03
439.09	6139.56
439.31	6146.53
439.52	6157.42
439.73	6166.84
439.94	6148.74
440.16	6228.77
440.37	6187.65
440.58	6296.11
440.80	6309.55
441.01	6291.36
441.22	6441.52
441.44	6428.25
441.65	6423.66
441.86	6431.36
442.08	6465.19
442.29	6476.25
442.50	6530.89
442.71	6484.36
442.93	6569.47
443.14	6552.60
443.35	6607.40
443.57	6559.56
443.78	6640.42
443.99	6668.92
444.20	6632.63
444.42	6718.07
444.63	6719.22
444.84	6765.59
445.06	6845.95
445.27	6734.46
445.48	6748.47
445.69	6831.04
445.91	6825.88
446.12	6763.62
446.33	6834.24
446.54	6949.33
446.76	6865.36
446.97	6896.25
447.18	6879.13
447.39	6956.05
447.61	6984.06
447.82	6989.39
448.03	6932.29
448.25	7013.31
448.46	7078.60
448.67	7064.92
448.88	6987.67
449.10	7056.32
449.31	7081.88
449.52	7052.14
449.73	7085.40
449.95	7181.65
450.16	7090.81
450.37	7209.18
450.58	7322.88
450.79	7088.84
451.01	7192.38
451.22	7102.27
451.43	7174.94
451.64	7218.93
451.86	7205.16
452.07	7214.67
452.28	7276.68
452.49	7319.28
452.71	7193.45
452.92	7202.71
453.13	7264.15
453.34	7224.82
453.55	7302.48
453.77	7331.07
453.98	7329.52
454.19	7247.93
454.40	7317.56
454.62	7330.75
454.83	7305.68
455.04	7421.43
455.25	7286.18
455.46	7510.64
455.68	7349.50
455.89	7333.61
456.10	7387.51
456.31	7393.33
456.52	7406.44
456.74	7418.15
456.95	7525.96
457.16	7450.43
457.37	7497.12
457.58	7485.16
457.80	7461.90
458.01	7442.40
458.22	7678.41
458.43	7516.78
458.64	7571.59
458.86	7441.17
459.07	7544.80
459.28	7523.99
459.49	7602.63
459.70	7766.72
459.91	7684.47
460.13	7631.06
460.34	7687.09
460.55	7647.85
460.76	7714.70
460.97	7735.83
461.19	7729.12
461.40	7927.28
461.61	7813.49
461.82	7815.79
462.03	7849.62
462.24	7868.13
462.46	7842.08
462.67	7854.21
462.88	7942.92
463.09	7943.17
463.30	8008.95
463.51	7966.27
463.72	8104.22
463.94	8129.86
464.15	8152.31
464.36	8045.49
464.57	8258.64
464.78	8246.51
464.99	8272.16
465.20	8214.24
465.42	8334.50
465.63	8339.41
465.84	8349.00
466.05	8418.38
466.26	8476.46
466.47	8520.37
466.68	8485.14
466.90	8598.11
467.11	8580.91
467.32	8668.64
467.53	8733.60
467.74	8636.69
467.95	8710.34
468.16	8825.52
468.37	8874.09
468.59	8891.46
468.80	9036.54
469.01	8907.93
469.22	9080.86
469.43	9214.22
469.64	9115.84
469.85	9242.56
470.06	9283.36
470.28	9406.65
470.49	9224.30
470.70	9403.62
470.91	9593.10
471.12	9490.78
471.33	9668.13
471.54	9624.39
471.75	9623.90
471.96	9866.95
472.17	9807.97
472.39	10008.42
472.60	9811.98
472.81	10043.57
473.02	10004.74
473.23	10178.49
473.44	10224.44
473.65	10185.53
473.86	10266.06
474.07	10298.74
474.28	10355.84
474.49	10597.17
474.71	10522.63
474.92	10665.17
475.13	10583.82
475.34	10658.78
475.55	10696.30
475.76	10782.72
475.97	10990.47
476.18	10956.47
476.39	11083.52
476.60	11178.71
476.81	11172.49
477.02	11293.97
477.23	11325.02
477.44	11312.65
477.65	11472.31
477.87	11638.69
478.08	11623.78
478.29	11676.62
478.50	11847.17
478.71	11796.71
478.92	11931.71
479.13	11968.98
479.34	11990.69
479.55	12061.55
479.76	12099.32
479.97	12149.37
480.18	12460.01
480.39	12254.88
480.60	12516.78
480.81	12532.09
481.02	12573.22
481.23	12626.46
481.44	12802.34
481.65	12888.52
481.86	13009.84
482.07	12761.55
482.28	13278.46
482.49	13104.46
482.71	13187.12
482.92	13333.91
483.13	13458.84
483.34	13401.17
483.55	13486.28
483.76	13473.26
483.97	13705.33
484.18	13661.18
484.39	13799.30
484.60	13735.89
484.81	13993.52
485.02	13871.88
485.23	14103.21
485.44	14120.01
485.65	14218.31
485.86	14105.67
486.07	14365.68
486.28	14319.81
486.49	14438.51
486.70	14540.25
486.91	14651.99
487.12	14619.79
487.33	14580.80
487.54	14826.06
487.75	14819.76
487.96	14855.39
488.17	14867.93
488.38	14971.47
488.59	14971.72
488.80	15060.02
489.01	15070.26
489.22	15268.10
489.43	15246.31
489.64	15171.68
489.85	15445.45
490.06	15228.04
490.26	15462.57
490.47	15401.22
490.68	15564.97
490.89	15732.91
491.10	15462.25
491.31	15659.34
491.52	15798.44
491.73	15655.41
491.94	15662.29
492.15	15822.85
492.36	15881.18
492.57	15864.55
492.78	15903.13
492.99	15928.28
493.20	15999.06
493.41	16002.58
493.62	16048.54
493.83	15997.42
494.04	16067.38
494.25	16223.68
494.46	16174.45
494.67	16158.23
494.88	16228.68
495.08	16264.97
495.29	16293.23
495.50	16419.47
495.71	16344.35
495.92	16470.75
496.13	16435.03
496.34	16392.27
496.55	16561.35
496.76	16724.37
496.97	16413.73
497.18	16666.12
497.39	16657.03
497.60	16835.37
497.81	16583.47
498.02	16720.11
498.22	16573.47
498.43	16863.63
498.64	16848.15
498.85	16819.72
499.06	16845.36
499.27	17051.47
499.48	16720.85
499.69	16948.42
499.90	17005.51
500.11	17125.69
500.32	17299.52
500.52	17078.01
500.73	17366.94
500.94	17341.46
501.15	17398.89
501.36	17372.67
501.57	17290.26
501.78	17460.41
501.99	17584.35
502.20	17515.46
502.41	17616.55
502.61	17525.21
502.82	17739.91
503.03	17566.98
503.24	17827.08
503.45	17691.83
503.66	17948.15
503.87	17871.39
504.08	18040.39
504.28	17979.20
504.49	18101.67
504.70	18090.77
504.91	18213.98
505.12	18000.09
505.33	18322.03
505.54	18275.09
505.75	18285.33
505.95	18434.18
506.16	18387.56
506.37	18327.60
506.58	18709.10
506.79	18451.30
507.00	18742.68
507.21	18584.58
507.41	18635.53
507.62	18748.66
507.83	19049.80
508.04	18799.94
508.25	19003.76
508.46	18874.49
508.67	19186.11
508.87	18990.16
509.08	19283.26
509.29	19147.44
509.50	19320.21
509.71	19351.01
509.92	19473.48
510.12	19374.60
510.33	19455.38
510.54	19546.22
510.75	19611.59
510.96	19726.03
511.17	19878.73
511.37	19810.25
511.58	19943.20
511.79	19813.03
512.00	19842.44
512.21	20094.59
512.42	20131.94
512.62	20215.66
512.83	20298.65
513.04	20259.82
513.25	20454.13
513.46	20095.00
513.66	20660.89
513.87	20441.02
514.08	20593.80
514.29	20574.96
514.50	20608.63
514.71	20783.77
514.91	20728.23
515.12	20816.54
515.33	20859.38
515.54	20851.43
515.75	21110.22
515.95	20981.60
516.16	21019.12
516.37	21226.79
516.58	21268.32
516.78	21124.88
516.99	21362.20
517.20	21327.71
517.41	21380.22
517.62	21426.42
517.82	21464.76
518.03	21730.91
518.24	21922.44
518.45	21597.55
518.66	21892.70
518.86	21721.66
519.07	22001.90
519.28	21681.19
519.49	22055.89
519.69	22089.39
519.90	22072.43
520.11	22196.54
520.32	22134.69
520.52	22341.21
520.73	22193.51
520.94	22485.96
521.15	22464.25
521.36	22248.72
521.56	22695.51
521.77	22375.37
521.98	22731.39
522.19	22504.72
522.39	22771.69
522.60	22645.70
522.81	22762.19
523.02	22705.67
523.22	22915.38
523.43	23036.29
523.64	23003.44
523.84	23053.25
524.05	23310.80
524.26	23272.46
524.47	23140.24
524.67	23258.45
524.88	23365.93
525.09	23596.29
525.30	23441.30
525.50	23424.34
525.71	23514.29
525.92	23634.54
526.13	23774.46
526.33	23723.59
526.54	23582.61
526.75	23878.09
526.95	24101.64
527.16	23704.99
527.37	24088.95
527.58	24153.42
527.78	24100.50
527.99	24325.77
528.20	24420.72
528.40	24199.37
528.61	24276.70
528.82	24490.43
529.03	24494.69
529.23	24390.41
529.44	24657.13
529.65	24659.59
529.85	24711.12
530.06	24740.86
530.27	24817.37
530.47	24632.72
530.68	25152.50
530.89	24673.85
531.09	25124.15
531.30	25024.95
531.51	24859.47
531.72	25180.35
531.92	25200.17
532.13	25340.42
532.34	25247.19
532.54	25347.38
532.75	25375.07
532.96	25379.99
533.16	25582.00
533.37	25593.30
533.58	25462.89
533.78	25619.27
533.99	25691.77
534.20	25459.28
534.40	25700.94
534.61	25798.18
534.82	25886.00
535.02	25896.89
535.23	25885.75
535.44	25995.77
535.64	25919.17
535.85	26037.96
536.06	25943.01
536.26	25935.64
536.47	25937.03
536.68	26230.30
536.88	25895.66
537.09	26279.62
537.29	25953.91
537.50	26390.04
537.71	26140.11
537.91	26276.09
538.12	26408.15
538.33	26220.96
538.53	26380.95
538.74	26363.26
538.95	26389.88
539.15	26275.36
539.36	26430.02
539.56	26598.69
539.77	26363.67
539.98	26392.26
540.18	26558.22
540.39	26439.93
540.60	26571.33
540.80	26680.20
541.01	26652.76
541.21	26667.09
541.42	26744.67
541.63	26720.59
541.83	26842.97
542.04	26827.33
542.25	26696.42
542.45	26819.13
542.66	26728.86
542.86	26928.25
543.07	26454.68
543.28	26912.11
543.48	26861.49
543.69	27044.08
543.89	26927.92
544.10	27238.89
544.31	27070.38
544.51	26930.22
544.72	27132.64
544.92	27060.79
545.13	27227.01
545.33	27189.24
545.54	27105.60
545.75	27270.01
545.95	27154.67
546.16	27182.44
546.36	27440.90
546.57	27003.94
546.78	26592.06
546.98	27022.62
547.19	26599.18
547.39	27187.85
547.60	27415.34
547.80	27672.89
548.01	27687.80
548.22	27454.66
548.42	27532.48
548.63	27703.20
548.83	27626.03
549.04	27829.44
549.24	27577.70
549.45	27819.69
549.65	27983.36
549.86	27667.16
550.07	27771.36
550.27	27955.84
550.48	28096.66
550.68	27967.06
550.89	27945.43
551.09	28055.37
551.30	27978.61
551.50	28175.46
551.71	28087.73
551.91	28160.47
552.12	28192.50
552.33	28422.45
552.53	28102.64
552.74	28578.34
552.94	28548.19
553.15	28378.46
553.35	28651.90
553.56	28419.83
553.76	28747.09
553.97	28563.76
554.17	28646.58
554.38	29079.52
554.58	28669.92
554.79	29049.37
554.99	28723.91
555.20	28844.17
555.40	29220.34
555.61	29046.10
555.81	28887.42
556.02	29464.70
556.22	29420.38
556.43	29314.46
556.63	29347.39
556.84	29347.06
557.04	29740.27
557.25	29438.65
557.45	29604.37
557.66	29595.85
557.86	29546.13
558.07	29992.67
558.27	29780.91
558.48	29959.82
558.68	30014.05
558.89	30136.76
559.09	30113.00
559.30	30030.68
559.50	30321.98
559.71	30118.66
559.91	30531.36
560.12	30433.06
560.32	30453.95
560.53	30540.87
560.73	30431.42
560.94	30685.86
561.14	30495.89
561.35	30963.40
561.55	30888.61
561.76	30990.35
561.96	30779.41
562.17	31120.36
562.37	31241.68
562.57	31156.98
562.78	31147.72
562.98	31431.73
563.19	31497.02
563.39	31625.55
563.60	31707.64
563.80	31481.79
564.01	31873.19
564.21	31703.62
564.42	31595.57
564.62	31924.72
564.82	32117.47
565.03	32003.53
565.23	32097.08
565.44	32309.16
565.64	32304.09
565.85	32550.25
566.05	32304.25
566.25	32533.38
566.46	32381.83
566.66	32547.06
566.87	32607.76
567.07	32695.49
567.28	32827.14
567.48	33045.04
567.68	32679.27
567.89	33380.33
568.09	33085.18
568.30	33227.39
568.50	33545.32
568.71	33410.32
568.91	33718.17
569.11	33421.29
569.32	33525.25
569.52	33672.21
569.73	33449.39
569.93	33885.04
570.13	33756.51
570.34	33752.98
570.54	34166.18
570.75	33936.40
570.95	33980.39
571.15	33946.97
571.36	34303.31
571.56	34130.22
571.77	34094.67
571.97	33945.33
572.17	34527.77
572.38	34394.82
572.58	34613.46
572.79	34585.36
572.99	34693.25
573.19	34672.03
573.40	34640.74
573.60	34791.22
573.81	34838.98
574.01	35042.96
574.21	35021.82
574.42	35053.20
574.62	35051.31
574.82	35453.29
575.03	35134.79
575.23	35554.54
575.43	35300.43
575.64	35253.24
575.84	35706.99
576.05	35396.52
576.25	35641.62
576.45	35583.21
576.66	36023.36
576.86	35731.98
577.06	35985.60
577.27	35931.61
577.47	35843.63
577.67	35802.34
577.88	35489.82
578.08	36053.26
578.28	36177.45
578.49	36054.90
578.69	36269.12
578.89	36181.46
579.10	36388.96
579.30	36921.68
579.50	36550.67
579.71	36408.38
579.91	36841.16
580.11	36648.97
580.32	36604.33
580.52	36616.62
580.72	36963.62
580.93	36499.31
581.13	36587.37
581.33	37038.01
581.54	36696.16
581.74	36836.24
581.94	36966.25
582.15	37239.20
582.35	37019.66
582.55	37112.06
582.76	36940.36
582.96	37627.58
583.16	37326.69
583.37	37596.20
583.57	37328.08
583.77	37893.98
583.97	37098.95
584.18	37815.42
584.38	37558.52
584.58	37323.82
584.79	37704.58
584.99	37717.93
585.19	37726.12
585.40	37787.15
585.60	38057.57
585.80	37750.29
586.00	38095.74
586.21	38028.65
586.41	38114.50
586.61	38276.95
586.82	38220.75
587.02	38062.89
587.22	38387.45
587.42	37809.19
587.63	38367.14
587.83	37799.11
588.03	38041.59
588.23	37765.44
588.44	38039.63
588.64	37750.04
588.84	37945.99
589.05	38163.08
589.25	38198.30
589.45	38180.69
589.65	38121.46
589.86	38470.03
590.06	38454.46
590.26	38311.19
590.46	38704.89
590.67	38254.01
590.87	38702.84
591.07	38785.09
591.27	38461.92
591.48	38719.88
591.68	38252.70
591.88	39001.35
592.08	38257.53
592.29	38708.74
592.49	38692.93
592.69	38991.11
592.89	38759.53
593.10	38740.11
593.30	38581.27
593.50	39046.00
593.70	38194.45
593.90	38859.72
594.11	38675.97
594.31	38682.12
594.51	38919.60
594.71	38883.23
594.92	38828.75
595.12	38781.24
595.32	38821.21
595.52	39100.72
595.72	38385.16
595.93	39012.33
596.13	38778.29
596.33	38533.35
596.53	38931.72
596.73	38731.76
596.94	38729.46
597.14	39033.38
597.34	38752.98
597.54	39008.56
597.74	38688.67
597.95	38913.78
598.15	38848.08
598.35	38976.20
598.55	39007.99
598.75	38828.59
598.96	39226.06
599.16	38932.87
599.36	38966.13
599.56	38840.87
599.76	38739.62
599.97	39254.65
600.17	39005.37
600.37	39109.08
600.57	38496.90
600.77	39098.10
600.97	38760.68
601.18	39230.07
601.38	38914.85
601.58	39118.25
601.78	38957.85
601.98	38768.13
602.18	39076.06
602.39	39295.52
602.59	39148.07
602.79	39079.18
602.99	38982.84
603.19	39044.61
603.39	38804.91
603.60	38720.95
603.80	38802.04
604.00	38687.44
604.20	38735.20
604.40	38836.20
604.60	38627.97
604.80	38627.80
605.01	38922.22
605.21	38689.08
605.41	38714.88
605.61	38596.51
605.81	38877.57
606.01	39050.42
606.21	38594.63
606.42	38919.68
606.62	38833.01
606.82	39041.33
607.02	38847.67
607.22	38914.03
607.42	39151.67
607.62	38532.70
607.82	38703.66
608.03	38840.71
608.23	38693.09
