SpectraSuite Data File
++++++++++++++++++++++++++++++++++++
Date: Tue Sep 20 12:47:45 EDT 2022
User: Laboratoire
Dark Spectrum Present: No
Reference Spectrum Present: No
Number of Sampled Component Spectra: 1
Spectrometers: FLMT00174
Integration Time (usec): 40000 (FLMT00174)
Spectra Averaged: 25 (FLMT00174)
Boxcar Smoothing: 0 (FLMT00174)
Correct for Electrical Dark: No (FLMT00174)
Strobe/Lamp Enabled: No (FLMT00174)
Correct for Detector Non-linearity: No (FLMT00174)
Correct for Stray Light: No (FLMT00174)
Number of Pixels in Processed Spectrum: 3648
>>>>>Begin Processed Spectral Data<<<<<
345.74	3182.22
345.96	3182.22
346.18	3182.22
346.39	3206.63
346.61	3339.34
346.83	3324.02
347.05	3341.47
347.27	3305.99
347.49	3347.69
347.71	3361.62
347.93	3355.97
348.15	3350.48
348.36	3370.06
348.58	3348.67
348.80	3333.85
349.02	3352.20
349.24	3357.69
349.46	3538.73
349.68	3566.58
349.90	3571.00
350.11	3532.17
350.33	3541.76
350.55	3551.67
350.77	3549.13
350.99	3518.82
351.21	3550.28
351.43	3543.15
351.65	3567.48
351.86	3545.44
352.08	3561.75
352.30	3528.65
352.52	3576.24
352.74	3494.98
352.96	3529.39
353.18	3579.11
353.39	3562.56
353.61	3541.59
353.83	3563.96
354.05	3628.51
354.27	3573.38
354.49	3575.67
354.70	3545.28
354.92	3539.22
355.14	3517.35
355.36	3521.69
355.58	3546.84
355.80	3552.00
356.02	3560.60
356.23	3583.70
356.45	3540.36
356.67	3564.86
356.89	3580.75
357.11	3542.49
357.33	3605.74
357.54	3527.01
357.76	3524.06
357.98	3525.37
358.20	3563.55
358.42	3533.73
358.63	3543.72
358.85	3567.48
359.07	3573.30
359.29	3503.09
359.51	3498.42
359.73	3538.32
359.94	3544.62
360.16	3510.87
360.38	3528.65
360.60	3517.35
360.82	3554.86
361.03	3561.50
361.25	3535.94
361.47	3592.14
361.69	3584.60
361.91	3540.53
362.12	3531.60
362.34	3564.12
362.56	3586.98
362.78	3553.72
363.00	3569.69
363.21	3534.96
363.43	3562.48
363.65	3520.87
363.87	3545.69
364.09	3562.32
364.30	3522.10
364.52	3521.44
364.74	3574.03
364.96	3549.38
365.17	3549.70
365.39	3554.86
365.61	3502.44
365.83	3557.49
366.05	3518.66
366.26	3529.14
366.48	3542.33
366.70	3590.50
366.92	3563.22
367.13	3540.20
367.35	3543.07
367.57	3553.31
367.79	3532.34
368.01	3577.80
368.22	3579.44
368.44	3540.20
368.66	3550.28
368.88	3574.61
369.09	3530.29
369.31	3576.90
369.53	3522.92
369.75	3538.64
369.96	3581.24
370.18	3535.29
370.40	3552.57
370.62	3557.81
370.83	3520.54
371.05	3592.63
371.27	3572.56
371.49	3537.33
371.70	3560.52
371.92	3543.97
372.14	3541.27
372.36	3515.87
372.57	3587.71
372.79	3560.03
373.01	3544.38
373.22	3528.73
373.44	3554.29
373.66	3534.88
373.88	3562.40
374.09	3527.01
374.31	3518.33
374.53	3515.63
374.75	3562.40
374.96	3565.84
375.18	3574.44
375.40	3530.70
375.61	3537.58
375.83	3532.42
376.05	3535.12
376.27	3572.89
376.48	3512.35
376.70	3549.79
376.92	3538.89
377.13	3513.58
377.35	3518.41
377.57	3549.79
377.79	3511.86
378.00	3553.64
378.22	3562.48
378.44	3518.41
378.65	3587.63
378.87	3556.34
379.09	3555.93
379.30	3530.62
379.52	3553.64
379.74	3538.73
379.96	3530.70
380.17	3538.64
380.39	3523.57
380.61	3545.69
380.82	3537.42
381.04	3519.15
381.26	3548.97
381.47	3574.20
381.69	3566.33
381.91	3536.02
382.12	3556.34
382.34	3581.24
382.56	3536.68
382.77	3539.87
382.99	3536.35
383.21	3540.69
383.42	3571.41
383.64	3561.42
383.86	3557.73
384.07	3563.14
384.29	3534.88
384.51	3523.00
384.72	3537.99
384.94	3527.83
385.16	3520.95
385.37	3538.97
385.59	3508.33
385.81	3556.91
386.02	3484.66
386.24	3565.19
386.46	3501.37
386.67	3554.95
386.89	3589.52
387.11	3587.39
387.32	3538.56
387.54	3549.46
387.76	3557.90
387.97	3598.94
388.19	3548.47
388.40	3544.30
388.62	3528.90
388.84	3564.69
389.05	3539.71
389.27	3563.30
389.49	3562.24
389.70	3502.52
389.92	3533.07
390.14	3525.46
390.35	3540.69
390.57	3546.18
390.78	3496.37
391.00	3511.20
391.22	3508.91
391.43	3529.72
391.65	3542.41
391.86	3561.34
392.08	3535.94
392.30	3523.24
392.51	3532.34
392.73	3595.17
392.95	3545.44
393.16	3507.11
393.38	3540.28
393.59	3506.94
393.81	3568.22
394.03	3542.33
394.24	3539.38
394.46	3528.08
394.67	3530.78
394.89	3516.36
395.11	3539.22
395.32	3575.59
395.54	3552.90
395.75	3562.32
395.97	3520.95
396.19	3507.68
396.40	3556.83
396.62	3558.55
396.83	3532.83
397.05	3540.20
397.26	3539.38
397.48	3517.84
397.70	3531.11
397.91	3552.49
398.13	3508.09
398.34	3556.58
398.56	3572.64
398.78	3575.84
398.99	3600.82
399.21	3499.90
399.42	3574.52
399.64	3505.06
399.85	3538.40
400.07	3525.86
400.29	3598.04
400.50	3534.96
400.72	3565.19
400.93	3523.16
401.15	3522.59
401.36	3523.74
401.58	3534.22
401.79	3548.80
402.01	3560.84
402.23	3546.51
402.44	3602.38
402.66	3548.23
402.87	3558.30
403.09	3565.19
403.30	3553.14
403.52	3518.49
403.73	3494.82
403.95	3525.78
404.16	3538.07
404.38	3532.58
404.60	3513.66
404.81	3552.82
405.03	3554.21
405.24	3572.97
405.46	3559.04
405.67	3568.71
405.89	3550.44
406.10	3551.83
406.32	3526.52
406.53	3580.18
406.75	3634.65
406.96	3527.59
407.18	3557.08
407.39	3531.19
407.61	3597.54
407.82	3521.52
408.04	3572.48
408.25	3553.14
408.47	3524.55
408.68	3543.48
408.90	3517.02
409.12	3566.50
409.33	3577.88
409.55	3547.25
409.76	3566.74
409.98	3579.19
410.19	3579.52
410.41	3555.36
410.62	3557.16
410.84	3550.19
411.05	3560.76
411.27	3586.32
411.48	3563.71
411.70	3591.40
411.91	3554.29
412.12	3572.23
412.34	3530.21
412.55	3553.80
412.77	3557.24
412.98	3563.14
413.20	3546.34
413.41	3572.48
413.63	3558.14
413.84	3556.58
414.06	3594.10
414.27	3535.20
414.49	3552.41
414.70	3582.63
414.92	3555.44
415.13	3555.19
415.35	3584.85
415.56	3594.10
415.78	3560.19
415.99	3593.12
416.21	3564.04
416.42	3613.44
416.63	3597.95
416.85	3594.76
417.06	3594.35
417.28	3615.57
417.49	3595.00
417.71	3589.68
417.92	3555.68
418.14	3573.95
418.35	3581.57
418.57	3615.98
418.78	3589.84
418.99	3561.50
419.21	3599.92
419.42	3564.61
419.64	3575.34
419.85	3601.31
420.07	3607.46
420.28	3608.03
420.50	3617.45
420.71	3597.95
420.92	3589.60
421.14	3613.93
421.35	3556.83
421.57	3575.84
421.78	3587.30
422.00	3606.15
422.21	3606.96
422.42	3611.39
422.64	3597.79
422.85	3622.20
423.07	3618.43
423.28	3606.39
423.50	3588.21
423.71	3593.37
423.92	3645.88
424.14	3616.71
424.35	3607.29
424.57	3645.47
424.78	3667.26
424.99	3617.12
425.21	3598.61
425.42	3619.01
425.64	3626.30
425.85	3624.00
426.06	3687.82
426.28	3629.66
426.49	3627.61
426.71	3646.20
426.92	3607.87
427.13	3666.03
427.35	3680.94
427.56	3672.75
427.78	3637.19
427.99	3653.49
428.20	3682.33
428.42	3684.87
428.63	3655.87
428.84	3639.81
429.06	3667.67
429.27	3686.26
429.49	3628.43
429.70	3638.50
429.91	3681.76
430.13	3666.44
430.34	3617.37
430.56	3704.04
430.77	3679.95
430.98	3667.26
431.20	3726.48
431.41	3692.73
431.62	3643.25
431.84	3672.17
432.05	3673.89
432.26	3714.85
432.48	3691.42
432.69	3748.19
432.91	3719.85
433.12	3692.90
433.33	3717.23
433.55	3762.77
433.76	3691.59
433.97	3743.93
434.19	3717.72
434.40	3710.26
434.61	3709.85
434.83	3741.88
435.04	3723.04
435.25	3721.90
435.47	3734.27
435.68	3743.77
435.89	3753.03
436.11	3714.03
436.32	3772.60
436.53	3732.79
436.75	3738.28
436.96	3749.75
437.17	3742.79
437.39	3730.99
437.60	3738.36
437.81	3723.37
438.03	3777.27
438.24	3742.38
438.45	3792.35
438.67	3724.85
438.88	3812.33
439.09	3808.57
439.31	3823.15
439.52	3799.97
439.73	3827.74
439.94	3761.63
440.16	3807.01
440.37	3789.15
440.58	3847.56
440.80	3783.91
441.01	3796.28
441.22	3815.53
441.44	3786.61
441.65	3834.21
441.86	3805.62
442.08	3851.41
442.29	3845.68
442.50	3847.31
442.71	3838.47
442.93	3848.79
443.14	3829.37
443.35	3864.44
443.57	3860.34
443.78	3805.62
443.99	3849.20
444.20	3869.43
444.42	3832.81
444.63	3837.65
444.84	3860.83
445.06	3877.13
445.27	3888.27
445.48	3852.64
445.69	3885.00
445.91	3853.70
446.12	3877.46
446.33	3884.01
446.54	3869.60
446.76	3882.70
446.97	3858.21
447.18	3834.37
447.39	3919.98
447.61	3897.53
447.82	3886.64
448.03	3919.73
448.25	3918.09
448.46	3913.09
448.67	3955.69
448.88	3916.62
449.10	3952.58
449.31	3940.21
449.52	3952.17
449.73	3925.14
449.95	3966.51
450.16	3953.56
450.37	3980.60
450.58	3940.46
450.79	3928.25
451.01	3929.64
451.22	3990.26
451.43	3973.55
451.64	4017.21
451.86	4017.62
452.07	3963.47
452.28	3953.89
452.49	4063.33
452.71	4001.65
452.92	4017.71
453.13	4013.61
453.34	4063.25
453.55	4021.88
453.77	4020.24
453.98	4036.55
454.19	4027.45
454.40	4010.17
454.62	4050.64
454.83	4041.95
455.04	4058.34
455.25	4074.64
455.46	4107.32
455.68	4124.77
455.89	4094.79
456.10	4072.10
456.31	4100.93
456.52	4097.58
456.74	4160.24
456.95	4094.87
457.16	4129.03
457.37	4113.30
457.58	4139.27
457.80	4152.22
458.01	4109.21
458.22	4183.67
458.43	4179.25
458.64	4146.56
458.86	4178.51
459.07	4161.06
459.28	4171.96
459.49	4213.65
459.70	4225.21
459.91	4222.50
460.13	4181.13
460.34	4205.30
460.55	4213.25
460.76	4223.89
460.97	4258.71
461.19	4235.69
461.40	4273.70
461.61	4249.78
461.82	4283.37
462.03	4279.68
462.24	4276.81
462.46	4285.25
462.67	4289.10
462.88	4290.41
463.09	4326.46
463.30	4308.76
463.51	4333.42
463.72	4324.98
463.94	4349.07
464.15	4372.09
464.36	4364.71
464.57	4390.11
464.78	4407.15
464.99	4368.32
465.20	4384.05
465.42	4444.75
465.63	4460.97
465.84	4404.61
466.05	4464.08
466.26	4489.39
466.47	4475.06
466.68	4434.84
466.90	4503.89
467.11	4521.01
467.32	4543.79
467.53	4530.93
467.74	4529.21
467.95	4513.07
468.16	4558.37
468.37	4583.03
468.59	4561.24
468.80	4627.75
469.01	4609.65
469.22	4558.04
469.43	4653.31
469.64	4704.76
469.85	4732.77
470.06	4675.84
470.28	4718.27
470.49	4689.11
470.70	4691.49
470.91	4745.80
471.12	4727.20
471.33	4774.14
471.54	4775.78
471.75	4770.21
471.96	4864.01
472.17	4800.27
472.39	4896.12
472.60	4803.14
472.81	4905.38
473.02	4866.55
473.23	4912.18
473.44	4967.31
473.65	5001.39
473.86	4967.80
474.07	5000.65
474.28	5034.97
474.49	5026.62
474.71	5025.63
474.92	5067.90
475.13	5040.05
475.34	5092.81
475.55	5052.26
475.76	5157.52
475.97	5189.63
476.18	5179.07
476.39	5187.83
476.60	5220.93
476.81	5235.84
477.02	5279.25
477.23	5250.25
477.44	5282.69
477.65	5349.70
477.87	5403.11
478.08	5349.62
478.29	5425.31
478.50	5416.88
478.71	5426.87
478.92	5503.63
479.13	5459.39
479.34	5523.04
479.55	5509.86
479.76	5543.44
479.97	5546.72
480.18	5617.25
480.39	5596.36
480.60	5662.55
480.81	5718.42
481.02	5665.50
481.23	5705.80
481.44	5775.19
481.65	5843.43
481.86	5864.73
482.07	5820.00
482.28	5926.99
482.49	5898.48
482.71	5932.31
482.92	5963.44
483.13	5991.37
483.34	6049.78
483.55	6054.78
483.76	6052.24
483.97	6109.34
484.18	6141.28
484.39	6117.20
484.60	6159.23
484.81	6194.45
485.02	6212.88
485.23	6271.04
485.44	6314.05
485.65	6332.97
485.86	6356.08
486.07	6414.81
486.28	6410.47
486.49	6467.16
486.70	6515.24
486.91	6528.27
487.12	6539.41
487.33	6573.41
487.54	6634.52
487.75	6662.12
487.96	6705.87
488.17	6612.24
488.38	6729.54
488.59	6730.03
488.80	6793.36
489.01	6848.65
489.22	6977.92
489.43	6947.28
489.64	6863.32
489.85	6983.16
490.06	6944.74
490.26	7020.27
490.47	7041.08
490.68	7096.13
490.89	7220.65
491.10	7150.69
491.31	7211.47
491.52	7288.97
491.73	7247.84
491.94	7244.08
492.15	7354.42
492.36	7406.44
492.57	7374.90
492.78	7365.48
492.99	7483.85
493.20	7576.26
493.41	7571.01
493.62	7552.74
493.83	7583.22
494.04	7633.93
494.25	7719.78
494.46	7713.63
494.67	7682.26
494.88	7758.52
495.08	7792.52
495.29	7837.33
495.50	7938.42
495.71	7930.88
495.92	7984.13
496.13	7966.43
496.34	7960.86
496.55	8059.00
496.76	8078.75
496.97	8080.14
497.18	8179.67
497.39	8162.30
497.60	8317.95
497.81	8205.31
498.02	8345.64
498.22	8252.90
498.43	8399.05
498.64	8376.85
498.85	8478.34
499.06	8452.21
499.27	8578.20
499.48	8448.03
499.69	8578.61
499.90	8642.67
500.11	8650.29
500.32	8775.87
500.52	8703.87
500.73	8844.28
500.94	8930.95
501.15	8888.02
501.36	8880.07
501.57	8916.20
501.78	9004.59
501.99	9011.88
502.20	9074.39
502.41	9101.75
502.61	9148.19
502.82	9248.14
503.03	9169.41
503.24	9339.97
503.45	9256.82
503.66	9306.38
503.87	9421.80
504.08	9470.14
504.28	9520.02
504.49	9551.15
504.70	9569.34
504.91	9626.44
505.12	9657.32
505.33	9796.50
505.54	9720.72
505.75	9766.84
505.95	9852.12
506.16	9824.84
506.37	9846.22
506.58	9951.57
506.79	9996.79
507.00	10066.83
507.21	9999.17
507.41	10081.17
507.62	10121.55
507.83	10254.83
508.04	10167.76
508.25	10248.85
508.46	10234.36
508.67	10351.74
508.87	10371.90
509.08	10459.30
509.29	10404.09
509.50	10492.89
509.71	10519.68
509.92	10607.58
510.12	10589.88
510.33	10643.95
510.54	10637.56
510.75	10718.50
510.96	10843.67
511.17	10898.14
511.37	10912.15
511.58	10969.82
511.79	10979.32
512.00	11000.05
512.21	11126.70
512.42	11182.81
512.62	11188.71
512.83	11270.71
513.04	11239.58
513.25	11458.47
513.46	11292.01
513.66	11451.42
513.87	11431.02
514.08	11629.10
514.29	11568.65
514.50	11588.55
514.71	11708.81
514.91	11701.19
515.12	11781.39
515.33	11851.68
515.54	11871.34
515.75	12042.79
515.95	11955.39
516.16	11996.02
516.37	12122.58
516.58	12173.04
516.78	12190.90
516.99	12264.38
517.20	12283.63
517.41	12328.12
517.62	12306.41
517.82	12366.04
518.03	12504.08
518.24	12702.32
518.45	12531.36
518.66	12721.08
518.86	12678.97
519.07	12775.15
519.28	12703.55
519.49	12948.41
519.69	12906.63
519.90	12993.30
520.11	13065.63
520.32	13025.82
520.52	13171.55
520.73	13076.36
520.94	13275.92
521.15	13319.58
521.36	13224.06
521.56	13530.11
521.77	13360.46
521.98	13482.93
522.19	13445.08
522.39	13632.59
522.60	13599.17
522.81	13645.12
523.02	13660.28
523.22	13821.74
523.43	13862.70
523.64	13879.49
523.84	14006.80
524.05	14130.25
524.26	14094.69
524.47	14048.16
524.67	14183.99
524.88	14334.39
525.09	14371.33
525.30	14325.87
525.50	14388.29
525.71	14485.61
525.92	14519.20
526.13	14651.74
526.33	14595.05
526.54	14624.46
526.75	14741.61
526.95	14885.29
527.16	14714.33
527.37	15052.57
527.58	15062.07
527.78	15037.42
527.99	15183.15
528.20	15243.93
528.40	15228.45
528.61	15225.58
528.82	15355.26
529.03	15381.15
529.23	15494.44
529.44	15578.98
529.65	15588.89
529.85	15695.63
530.06	15709.39
530.27	15714.72
530.47	15674.17
530.68	16046.90
530.89	15852.59
531.09	16175.27
531.30	16116.78
531.51	16083.52
531.72	16303.88
531.92	16287.74
532.13	16409.47
532.34	16463.87
532.54	16497.62
532.75	16527.11
532.96	16615.58
533.16	16693.08
533.37	16887.80
533.58	16757.14
533.78	16974.55
533.99	17069.66
534.20	16964.39
534.40	17125.61
534.61	17217.85
534.82	17262.08
535.02	17356.78
535.23	17412.32
535.44	17537.90
535.64	17502.35
535.85	17643.41
536.06	17675.36
536.26	17691.66
536.47	17818.88
536.68	18020.57
536.88	17854.60
537.09	18137.47
537.29	17997.22
537.50	18303.43
537.71	18119.61
537.91	18396.90
538.12	18419.43
538.33	18419.27
538.53	18499.55
538.74	18613.91
538.95	18621.93
539.15	18672.48
539.36	18822.47
539.56	19012.69
539.77	18919.95
539.98	19023.09
540.18	19100.26
540.39	19054.55
540.60	19240.42
540.80	19319.80
541.01	19460.95
541.21	19443.25
541.42	19618.64
541.63	19615.53
541.83	19748.89
542.04	19798.37
542.25	19918.38
542.45	19916.66
542.66	20040.44
542.86	20140.38
543.07	19956.64
543.28	20264.57
543.48	20186.75
543.69	20425.05
543.89	20374.34
544.10	20719.22
544.31	20616.90
544.51	20601.50
544.72	20809.74
544.92	20724.71
545.13	20945.56
545.33	21001.02
545.54	21008.31
545.75	21201.23
545.95	21071.30
546.16	21173.13
546.36	21531.28
546.57	21175.18
546.78	20840.87
546.98	21113.74
547.19	20908.04
547.39	21478.93
547.60	21762.21
547.80	21980.77
548.01	22034.18
548.22	21943.90
548.42	22094.80
548.63	22260.11
548.83	22180.98
549.04	22443.69
549.24	22325.56
549.45	22422.64
549.65	22645.62
549.86	22423.37
550.07	22647.26
550.27	22844.27
550.48	22894.00
550.68	22929.39
550.89	22915.38
551.09	23149.91
551.30	23078.97
551.50	23358.56
551.71	23211.43
551.91	23279.59
552.12	23484.63
552.33	23656.74
552.53	23525.75
552.74	23748.08
552.94	23972.05
553.15	23820.66
553.35	23963.69
553.56	23925.27
553.76	24160.22
553.97	24062.81
554.17	24210.19
554.38	24572.18
554.58	24303.49
554.79	24537.21
554.99	24391.88
555.20	24513.86
555.40	24756.99
555.61	24747.49
555.81	24663.44
556.02	25026.01
556.22	25117.19
556.43	25038.71
556.63	25187.31
556.84	25128.74
557.04	25484.19
557.25	25306.34
557.45	25470.10
557.66	25441.34
557.86	25500.32
558.07	25888.05
558.27	25621.97
558.48	25808.34
558.68	25833.57
558.89	25988.64
559.09	26049.34
559.30	26012.15
559.50	26116.93
559.71	26031.65
559.91	26485.23
560.12	26260.61
560.32	26438.95
560.53	26556.26
560.73	26567.64
560.94	26713.62
561.14	26556.67
561.35	26878.44
561.55	26793.98
561.76	26996.41
561.96	26775.06
562.17	27118.30
562.37	27257.81
562.57	27189.16
562.78	27153.85
562.98	27385.44
563.19	27506.43
563.39	27495.05
563.60	27743.10
563.80	27528.47
564.01	27972.80
564.21	27842.05
564.42	27820.51
564.62	27986.56
564.82	28263.12
565.03	28003.19
565.23	28050.95
565.44	28334.63
565.64	28308.74
565.85	28424.50
566.05	28470.45
566.25	28733.33
566.46	28473.48
566.66	28850.55
566.87	28864.32
567.07	28803.86
567.28	28939.60
567.48	29145.87
567.68	28847.44
567.89	29364.02
568.09	29186.83
568.30	29197.07
568.50	29521.72
568.71	29461.91
568.91	29618.79
569.11	29491.24
569.32	29611.66
569.52	29876.59
569.73	29559.89
569.93	29949.90
570.13	29909.35
570.34	29939.17
570.54	30185.58
570.75	30079.17
570.95	30174.28
571.15	30166.91
571.36	30467.96
571.56	30405.37
571.77	30545.45
571.97	30233.34
572.17	30786.87
572.38	30688.32
572.58	30911.22
572.79	30899.42
572.99	31118.07
573.19	31108.65
573.40	31101.11
573.60	31182.70
573.81	31273.14
574.01	31388.23
574.21	31491.70
574.42	31496.69
574.62	31397.98
574.82	31668.48
575.03	31611.54
575.23	31977.07
575.43	31743.19
575.64	31841.49
575.84	32095.93
576.05	31930.04
576.25	32228.07
576.45	32161.47
576.66	32431.22
576.86	32287.13
577.06	32595.88
577.27	32650.68
577.47	32701.31
577.67	32750.30
577.88	32526.66
578.08	32937.97
578.28	33095.67
578.49	33015.96
578.69	33144.98
578.89	32976.31
579.10	33261.88
579.30	33621.42
579.50	33426.62
579.71	33256.64
579.91	33711.86
580.11	33559.08
580.32	33751.75
580.52	33726.69
580.72	34102.37
580.93	33792.63
581.13	33934.68
581.33	34283.57
581.54	34053.87
581.74	34245.23
581.94	34477.47
582.15	34561.11
582.35	34570.86
582.55	34629.43
582.76	34439.63
582.96	34922.70
583.16	34779.34
583.37	35018.22
583.57	34936.54
583.77	35179.84
583.97	34814.90
584.18	35448.70
584.38	35319.76
584.58	35125.37
584.79	35532.91
584.99	35549.38
585.19	35475.41
585.40	35607.54
585.60	35867.55
585.80	35562.40
586.00	36037.29
586.21	35930.46
586.41	36066.29
586.61	36313.27
586.82	36264.53
587.02	36229.80
587.22	36514.22
587.42	36237.00
587.63	36784.80
587.83	36284.19
588.03	36682.32
588.23	36495.87
588.44	36873.27
588.64	36831.00
588.84	36955.84
589.05	37120.99
589.25	37362.16
589.45	37331.28
589.65	37380.26
589.86	37510.84
590.06	37603.82
590.26	37469.14
590.46	37861.37
590.67	37473.40
590.87	38126.22
591.07	38120.32
591.27	37847.12
591.48	38266.05
591.68	38003.50
591.88	38539.17
592.08	38178.15
592.29	38610.76
592.49	38529.50
592.69	38745.85
592.89	38670.81
593.10	38808.11
593.30	38795.82
593.50	39373.43
593.70	38725.94
593.90	39285.53
594.11	39385.80
594.31	39361.39
594.51	39634.99
594.71	39768.52
594.92	39826.36
595.12	39707.98
595.32	39829.31
595.52	40071.95
595.72	39660.47
595.93	40138.47
596.13	40154.11
596.33	39941.62
596.53	40521.19
596.73	40480.07
596.94	40491.46
597.14	40627.11
597.34	40623.59
597.54	41005.66
597.74	40751.14
597.95	40902.28
598.15	41055.96
598.35	41309.82
598.55	41359.88
598.75	41305.65
598.96	41889.48
599.16	41487.59
599.36	41668.79
599.56	41620.54
599.76	41649.29
599.97	42179.64
600.17	42040.37
600.37	42167.68
600.57	41725.40
600.77	42576.78
600.97	42247.14
601.18	42700.39
601.38	42467.01
601.58	42804.59
601.78	42564.49
601.98	42642.56
602.18	43008.16
602.39	43234.91
602.59	43113.84
602.79	43016.85
602.99	43304.05
603.19	43390.56
603.39	43436.11
603.60	43526.14
603.80	43530.39
604.00	43721.43
604.20	43822.44
604.40	43976.28
604.60	43966.86
604.80	43940.40
605.01	44225.39
605.21	44237.27
605.41	44218.27
605.61	44002.17
605.81	44481.23
606.01	44736.24
606.21	44543.73
606.42	44779.49
606.62	44609.10
606.82	45149.52
607.02	44845.03
607.22	45096.27
607.42	45431.48
607.62	44929.98
607.82	45311.06
608.03	45397.49
608.23	45407.48
608.43	45201.37
608.63	45834.11
608.83	45757.93
609.03	45825.35
609.23	46060.95
609.43	46054.15
609.63	45975.34
609.84	45927.26
610.04	46449.49
610.24	46375.52
