SpectraSuite Data File
++++++++++++++++++++++++++++++++++++
Date: Tue Sep 13 11:01:19 EDT 2022
User: Laboratoire
Dark Spectrum Present: No
Reference Spectrum Present: No
Number of Sampled Component Spectra: 1
Spectrometers: FLMT00174
Integration Time (usec): 3000 (FLMT00174)
Spectra Averaged: 25 (FLMT00174)
Boxcar Smoothing: 0 (FLMT00174)
Correct for Electrical Dark: No (FLMT00174)
Strobe/Lamp Enabled: No (FLMT00174)
Correct for Detector Non-linearity: No (FLMT00174)
Correct for Stray Light: No (FLMT00174)
Number of Pixels in Processed Spectrum: 3648
>>>>>Begin Processed Spectral Data<<<<<
345.74	3070.48
345.96	3070.48
346.18	3070.48
346.39	3074.16
346.61	3079.00
346.83	3072.20
347.05	3056.63
347.27	3075.48
347.49	3082.60
347.71	3083.50
347.93	3065.48
348.15	3072.44
348.36	3055.16
348.58	3093.91
348.80	3073.18
349.02	3077.52
349.24	3067.28
349.46	3094.48
349.68	3073.26
349.90	3069.58
350.11	3069.50
350.33	3081.37
350.55	3066.14
350.77	3080.64
350.99	3067.37
351.21	3077.44
351.43	3068.35
351.65	3082.03
351.86	3059.01
352.08	3085.14
352.30	3064.66
352.52	3083.09
352.74	3061.30
352.96	3087.68
353.18	3073.76
353.39	3078.10
353.61	3065.15
353.83	3064.17
354.05	3069.25
354.27	3086.70
354.49	3068.35
354.70	3065.89
354.92	3077.61
355.14	3082.85
355.36	3070.64
355.58	3086.04
355.80	3076.46
356.02	3069.82
356.23	3080.96
356.45	3069.41
356.67	3085.63
356.89	3068.43
357.11	3087.19
357.33	3089.65
357.54	3068.59
357.76	3074.66
357.98	3064.09
358.20	3080.06
358.42	3076.62
358.63	3083.50
358.85	3084.08
359.07	3076.29
359.29	3061.22
359.51	3078.26
359.73	3070.07
359.94	3081.05
360.16	3046.39
360.38	3079.41
360.60	3078.34
360.82	3084.08
361.03	3069.50
361.25	3082.44
361.47	3062.20
361.69	3075.97
361.91	3074.16
362.12	3070.56
362.34	3082.77
362.56	3085.96
362.78	3071.46
363.00	3074.57
363.21	3086.04
363.43	3071.22
363.65	3060.57
363.87	3081.95
364.09	3073.26
364.30	3086.45
364.52	3068.68
364.74	3091.61
364.96	3071.71
365.17	3079.65
365.39	3056.31
365.61	3067.04
365.83	3063.02
366.05	3077.69
366.26	3060.89
366.48	3103.66
366.70	3068.27
366.92	3093.09
367.13	3071.71
367.35	3075.56
367.57	3081.87
367.79	3075.39
368.01	3074.16
368.22	3085.63
368.44	3068.76
368.66	3077.85
368.88	3085.14
369.09	3060.16
369.31	3080.64
369.53	3079.82
369.75	3067.86
369.96	3089.81
370.18	3068.43
370.40	3080.39
370.62	3071.38
370.83	3071.54
371.05	3075.80
371.27	3080.80
371.49	3069.25
371.70	3076.62
371.92	3060.81
372.14	3063.52
372.36	3074.82
372.57	3074.49
372.79	3065.81
373.01	3096.04
373.22	3080.06
373.44	3078.92
373.66	3075.39
373.88	3075.48
374.09	3083.91
374.31	3084.32
374.53	3076.70
374.75	3089.48
374.96	3071.22
375.18	3074.66
375.40	3052.87
375.61	3075.39
375.83	3063.93
376.05	3075.97
376.27	3070.81
376.48	3079.49
376.70	3070.97
376.92	3081.29
377.13	3088.99
377.35	3065.81
377.57	3075.39
377.79	3075.48
378.00	3074.90
378.22	3078.34
378.44	3087.68
378.65	3081.46
378.87	3072.85
379.09	3080.88
379.30	3084.81
379.52	3095.38
379.74	3069.99
379.96	3057.29
380.17	3072.04
380.39	3081.21
380.61	3073.02
380.82	3081.13
381.04	3069.99
381.26	3079.33
381.47	3081.70
381.69	3080.80
381.91	3069.50
382.12	3090.55
382.34	3073.26
382.56	3079.90
382.77	3072.36
382.99	3068.18
383.21	3084.16
383.42	3074.41
383.64	3076.79
383.86	3078.26
384.07	3077.11
384.29	3085.63
384.51	3067.12
384.72	3098.66
384.94	3081.05
385.16	3083.34
385.37	3073.43
385.59	3081.37
385.81	3081.70
386.02	3077.77
386.24	3064.17
386.46	3078.18
386.67	3069.99
386.89	3085.72
387.11	3062.94
387.32	3091.86
387.54	3070.81
387.76	3076.05
387.97	3088.17
388.19	3078.42
388.40	3059.42
388.62	3086.21
388.84	3071.38
389.05	3090.47
389.27	3067.20
389.49	3085.80
389.70	3056.72
389.92	3080.47
390.14	3059.99
390.35	3084.08
390.57	3068.51
390.78	3072.36
391.00	3083.09
391.22	3072.69
391.43	3069.41
391.65	3080.39
391.86	3060.98
392.08	3062.37
392.30	3076.87
392.51	3074.90
392.73	3064.01
392.95	3074.00
393.16	3065.65
393.38	3091.12
393.59	3078.67
393.81	3090.38
394.03	3075.39
394.24	3080.47
394.46	3073.10
394.67	3084.40
394.89	3079.08
395.11	3090.47
395.32	3084.57
395.54	3081.05
395.75	3067.53
395.97	3081.37
396.19	3075.07
396.40	3080.23
396.62	3083.83
396.83	3096.69
397.05	3080.88
397.26	3078.02
397.48	3066.05
397.70	3088.58
397.91	3071.54
398.13	3066.96
398.34	3083.83
398.56	3088.17
398.78	3074.57
398.99	3099.48
399.21	3065.65
399.42	3064.09
399.64	3069.74
399.85	3082.44
400.07	3082.27
400.29	3083.26
400.50	3078.83
400.72	3096.45
400.93	3065.97
401.15	3066.79
401.36	3087.35
401.58	3083.75
401.79	3074.74
402.01	3087.44
402.23	3072.12
402.44	3085.22
402.66	3068.10
402.87	3082.52
403.09	3086.21
403.30	3065.15
403.52	3054.34
403.73	3086.29
403.95	3061.39
404.16	3071.63
404.38	3067.78
404.60	3075.64
404.81	3067.04
405.03	3076.13
405.24	3067.53
405.46	3083.01
405.67	3080.39
405.89	3080.23
406.10	3062.37
406.32	3083.01
406.53	3069.74
406.75	3067.78
406.96	3066.87
407.18	3095.22
407.39	3071.30
407.61	3081.21
407.82	3070.15
408.04	3086.37
408.25	3072.28
408.47	3089.40
408.68	3085.55
408.90	3087.76
409.12	3085.72
409.33	3069.00
409.55	3093.42
409.76	3096.36
409.98	3078.26
410.19	3086.29
410.41	3079.33
410.62	3084.65
410.84	3082.60
411.05	3065.07
411.27	3055.24
411.48	3092.60
411.70	3074.82
411.91	3079.74
412.12	3085.96
412.34	3084.65
412.55	3079.33
412.77	3072.61
412.98	3081.05
413.20	3080.39
413.41	3068.18
413.63	3076.46
413.84	3070.56
414.06	3078.18
414.27	3080.06
414.49	3094.56
414.70	3077.44
414.92	3088.75
415.13	3065.56
415.35	3099.81
415.56	3089.57
415.78	3099.97
415.99	3076.46
416.21	3092.92
416.42	3107.10
416.63	3108.08
416.85	3106.77
417.06	3102.75
417.28	3084.49
417.49	3119.55
417.71	3113.40
417.92	3116.27
418.14	3093.91
418.35	3090.79
418.57	3091.61
418.78	3085.55
418.99	3087.03
419.21	3095.96
419.42	3087.44
419.64	3100.79
419.85	3099.81
420.07	3100.54
420.28	3105.70
420.50	3110.95
420.71	3086.29
420.92	3112.34
421.14	3098.58
421.35	3099.97
421.57	3093.99
421.78	3108.57
422.00	3098.17
422.21	3103.74
422.42	3112.91
422.64	3114.22
422.85	3115.78
423.07	3118.48
423.28	3116.60
423.50	3130.93
423.71	3118.16
423.92	3122.33
424.14	3129.71
424.35	3133.72
424.57	3103.00
424.78	3135.19
424.99	3136.67
425.21	3149.28
425.42	3136.18
425.64	3153.63
425.85	3133.15
426.06	3158.87
426.28	3134.05
426.49	3151.41
426.71	3156.66
426.92	3157.72
427.13	3146.25
427.35	3162.88
427.56	3155.92
427.78	3175.66
427.99	3145.76
428.20	3185.25
428.42	3173.20
428.63	3191.55
428.84	3179.84
429.06	3187.46
429.27	3189.26
429.49	3201.14
429.70	3197.45
429.91	3223.26
430.13	3208.76
430.34	3243.41
430.56	3215.07
430.77	3273.88
430.98	3195.73
431.20	3255.86
431.41	3247.18
431.62	3297.64
431.84	3216.54
432.05	3275.11
432.26	3268.39
432.48	3277.16
432.69	3272.57
432.91	3324.59
433.12	3287.89
433.33	3328.93
433.55	3325.74
433.76	3362.60
433.97	3312.47
434.19	3382.75
434.40	3367.02
434.61	3443.62
434.83	3369.56
435.04	3419.04
435.25	3413.55
435.47	3443.29
435.68	3374.56
435.89	3498.91
436.11	3456.81
436.32	3515.46
436.53	3477.78
436.75	3534.22
436.96	3501.45
437.17	3537.74
437.39	3484.25
437.60	3609.18
437.81	3529.31
438.03	3584.60
438.24	3589.84
438.45	3690.77
438.67	3591.56
438.88	3729.27
439.09	3676.51
439.31	3727.39
439.52	3682.82
439.73	3762.61
439.94	3666.93
440.16	3831.83
440.37	3709.53
440.58	3856.41
440.80	3824.21
441.01	3831.83
441.22	3976.34
441.44	3974.94
441.65	3878.44
441.86	3972.73
442.08	3942.75
442.29	4002.80
442.50	3992.31
442.71	4055.22
442.93	4041.05
443.14	4097.49
443.35	4135.67
443.57	4083.49
443.78	4118.22
443.99	4276.16
444.20	4099.62
444.42	4279.35
444.63	4209.80
444.84	4295.25
445.06	4344.32
445.27	4346.85
445.48	4246.42
445.69	4425.01
445.91	4351.52
446.12	4396.09
446.33	4412.23
446.54	4591.71
446.76	4420.09
446.97	4614.81
447.18	4507.42
447.39	4645.86
447.61	4613.09
447.82	4747.36
448.03	4583.68
448.25	4753.75
448.46	4763.98
448.67	4917.01
448.88	4729.42
449.10	5032.35
449.31	4945.93
449.52	4949.04
449.73	4912.91
449.95	5200.61
450.16	4946.91
450.37	5275.32
450.58	5346.26
450.79	5150.31
451.01	5137.12
451.22	5219.21
451.43	5178.33
451.64	5422.78
451.86	5313.33
452.07	5458.08
452.28	5444.40
452.49	5612.01
452.71	5440.63
452.92	5533.20
453.13	5566.30
453.34	5693.93
453.55	5744.22
453.77	5919.61
453.98	5747.17
454.19	5786.99
454.40	5828.03
454.62	6058.14
454.83	5788.38
455.04	6150.79
455.25	5921.58
455.46	6440.04
455.68	6071.57
455.89	6207.72
456.10	6205.51
456.31	6341.74
456.52	6334.86
456.74	6329.62
456.95	6606.26
457.16	6555.47
457.37	6516.72
457.58	6663.11
457.80	6561.04
458.01	6714.55
458.22	7052.22
458.43	6849.80
458.64	6898.38
458.86	6777.79
459.07	6928.69
459.28	6950.64
459.49	7010.20
459.70	7508.18
459.91	7256.61
460.13	7327.39
460.34	7337.87
460.55	7378.83
460.76	7505.31
460.97	7518.67
461.19	7500.32
461.40	7987.82
461.61	7581.99
461.82	7881.32
462.03	7800.14
462.24	7980.85
462.46	7803.42
462.67	7970.45
462.88	8042.95
463.09	8105.94
463.30	8255.28
463.51	8168.61
463.72	8438.70
463.94	8596.88
464.15	8463.60
464.36	8491.04
464.57	8765.22
464.78	8745.65
464.99	8799.47
465.20	8846.73
465.42	8949.79
465.63	9031.95
465.84	8949.38
466.05	9211.60
466.26	9234.62
466.47	9523.46
466.68	9255.92
466.90	9655.68
467.11	9449.25
467.32	9729.74
467.53	9762.26
467.74	9674.19
467.95	9779.87
468.16	10059.29
468.37	10069.29
468.59	10184.96
468.80	10392.95
469.01	10217.15
469.22	10470.77
469.43	10782.72
469.64	10514.68
469.85	10768.96
470.06	10802.95
470.28	11142.42
470.49	10663.28
470.70	11219.92
470.91	11419.80
471.12	11283.00
471.33	11665.15
471.54	11495.82
471.75	11534.16
471.96	12056.47
472.17	11883.22
472.39	12360.88
472.60	12004.37
472.81	12446.57
473.02	12298.05
473.23	12753.36
473.44	12672.91
473.65	12642.27
473.86	12719.44
474.07	13000.67
474.28	12953.16
474.49	13547.40
474.71	13320.56
474.92	13705.25
475.13	13455.32
475.34	13751.21
475.55	13761.86
475.76	13957.07
475.97	14174.32
476.18	14307.11
476.39	14478.32
476.60	14697.78
476.81	14730.88
477.02	15172.66
477.23	14990.97
477.44	15118.68
477.65	15294.31
477.87	15610.36
478.08	15681.46
478.29	15815.07
478.50	16191.24
478.71	16066.81
478.92	16248.83
479.13	16439.05
479.34	16435.11
479.55	16731.17
479.76	16742.06
479.97	16960.05
480.18	17358.83
480.39	17148.79
480.60	17583.78
480.81	17690.52
481.02	17700.43
481.23	17845.02
481.44	18221.11
481.65	18358.65
481.86	18627.09
482.07	18284.76
482.28	19271.96
482.49	18935.27
482.71	18982.21
482.92	19448.58
483.13	19637.97
483.34	19456.52
483.55	19699.41
483.76	19772.16
483.97	20103.52
484.18	20223.12
484.39	20495.66
484.60	20370.41
484.81	20732.98
485.02	20735.52
485.23	20980.54
485.44	21321.07
485.65	21379.65
485.86	21317.96
486.07	21825.69
486.28	21794.57
486.49	22037.04
486.70	22313.77
486.91	22492.35
487.12	22506.19
487.33	22346.78
487.54	22972.48
487.75	23010.49
487.96	23212.82
488.17	23091.58
488.38	23542.30
488.59	23584.90
488.80	23791.74
489.01	23780.03
489.22	24248.77
489.43	24200.93
489.64	24117.37
489.85	24647.22
490.06	24339.78
490.26	24798.85
490.47	24774.77
490.68	25253.42
490.89	25532.35
491.10	25021.26
491.31	25615.01
491.52	25843.89
491.73	25759.60
491.94	25724.21
492.15	26221.62
492.36	26366.04
492.57	26415.36
492.78	26419.78
492.99	26662.42
493.20	26867.38
493.41	26920.39
493.62	26946.68
493.83	27079.39
494.04	27155.98
494.25	27571.39
494.46	27444.58
494.67	27423.37
494.88	27751.04
495.08	27973.70
495.29	27979.10
495.50	28385.50
495.71	28133.60
495.92	28523.94
496.13	28608.08
496.34	28438.50
496.55	28614.30
496.76	29274.40
496.97	28656.90
497.18	29164.80
497.39	29043.88
497.60	29606.58
497.81	29053.14
498.02	29496.89
498.22	29244.99
498.43	29904.93
498.64	29959.49
498.85	29930.16
499.06	30076.63
499.27	30554.22
499.48	29869.79
499.69	30205.82
499.90	30367.61
500.11	30633.76
500.32	30971.02
500.52	30605.91
500.73	31194.25
500.94	31318.68
501.15	31236.68
501.36	31348.83
501.57	31228.08
501.78	31520.70
501.99	31774.97
502.20	31837.97
502.41	31896.95
502.61	31807.74
502.82	32204.23
503.03	31986.32
503.24	32300.48
503.45	32145.25
503.66	32563.85
503.87	32550.09
504.08	32678.45
504.28	32508.39
504.49	32739.65
504.70	32985.40
504.91	33128.19
505.12	32898.65
505.33	33251.80
505.54	33397.95
505.75	33481.01
505.95	33788.45
506.16	33519.19
506.37	33500.92
506.58	34035.44
506.79	33398.19
507.00	34130.71
507.21	33836.38
507.41	33829.41
507.62	33997.18
507.83	34599.94
508.04	34236.96
508.25	34520.07
508.46	34374.01
508.67	34747.72
508.87	34592.40
509.08	34923.77
509.29	34897.96
509.50	34929.83
509.71	35121.11
509.92	35297.97
510.12	35158.79
510.33	35313.78
510.54	35408.15
510.75	35430.35
510.96	35859.36
511.17	36171.47
511.37	36142.47
511.58	36182.37
511.79	36017.87
512.00	35978.72
512.21	36406.00
512.42	36339.73
512.62	36577.62
512.83	36801.92
513.04	36605.88
513.25	36878.43
513.46	36142.47
513.66	37229.04
513.87	36950.11
514.08	37289.17
514.29	37152.36
514.50	37164.00
514.71	37587.03
514.91	37370.51
515.12	37304.24
515.33	37690.08
515.54	37622.99
515.75	38018.66
515.95	37812.63
516.16	37785.92
516.37	38198.80
516.58	38369.68
516.78	38128.75
516.99	38291.85
517.20	38335.60
517.41	38428.00
517.62	38544.49
517.82	38501.98
518.03	39110.96
518.24	39410.21
518.45	38785.17
518.66	39206.31
518.86	38996.93
519.07	39509.99
519.28	38792.13
519.49	39640.89
519.69	39652.93
519.90	39683.08
520.11	39812.18
520.32	39750.50
520.52	40192.94
520.73	39748.21
520.94	40304.60
521.15	40106.27
521.36	39767.87
521.56	40620.40
521.77	40089.23
521.98	40725.99
522.19	40306.15
522.39	40720.42
522.60	40547.08
522.81	40606.47
523.02	40524.14
523.22	41028.68
523.43	41068.41
523.64	40955.12
523.84	41095.36
524.05	41365.61
524.26	41449.66
524.47	41142.87
524.67	41349.88
524.88	41546.32
525.09	42050.86
525.30	41637.25
525.50	41486.11
525.71	41757.76
525.92	41788.72
526.13	42257.71
526.33	41996.14
526.54	41671.90
526.75	42067.57
526.95	42470.04
527.16	41842.46
527.37	42374.77
527.58	42556.63
527.78	42567.52
527.99	42905.68
528.20	43095.57
528.40	42733.08
528.61	42597.26
528.82	43066.73
529.03	43057.64
529.23	42726.20
529.44	43280.46
529.65	43238.19
529.85	43470.02
530.06	43323.14
530.27	43458.88
530.47	43013.49
530.68	43930.65
530.89	43045.35
531.09	43774.10
531.30	43872.00
531.51	43390.31
531.72	44108.82
531.92	44076.55
532.13	44233.75
532.34	43970.13
532.54	44031.25
532.75	44286.83
532.96	44265.37
533.16	44511.62
533.37	44793.50
533.58	44425.19
533.78	44838.56
533.99	44866.33
534.20	44357.20
534.40	44790.22
534.61	45012.63
534.82	45236.19
535.02	45189.41
535.23	45015.83
535.44	45330.40
535.64	44968.72
535.85	45415.75
536.06	45273.13
536.26	45373.81
536.47	45279.03
536.68	46005.24
536.88	45227.92
537.09	46022.20
537.29	45395.28
537.50	46177.76
537.71	45597.29
537.91	45791.84
538.12	46088.23
538.33	45829.69
538.53	46161.30
538.74	46247.72
538.95	46232.32
539.15	46090.44
539.36	46323.25
539.56	46646.75
539.77	46279.42
539.98	46408.94
540.18	46632.08
540.39	46308.34
540.60	46732.27
540.80	46894.63
541.01	46728.99
541.21	46868.26
541.42	47015.22
541.63	46896.85
541.83	47170.45
542.04	47121.06
542.25	47037.83
542.45	47476.26
542.66	47311.11
542.86	47640.75
543.07	46592.11
543.28	47526.06
543.48	47328.31
543.69	47753.63
543.89	47441.44
544.10	48126.36
544.31	47824.58
544.51	47711.12
544.72	47833.75
544.92	47593.56
545.13	48244.66
545.33	48036.75
545.54	47812.45
545.75	48185.59
545.95	47922.80
546.16	47935.99
546.36	48602.97
546.57	47531.88
546.78	46565.16
546.98	47312.91
547.19	46354.05
547.39	47785.17
547.60	48175.84
547.80	48914.34
548.01	48866.34
548.22	48596.25
548.42	48611.98
548.63	48907.79
548.83	48692.01
549.04	48982.66
549.24	48601.90
549.45	49016.74
549.65	49439.36
549.86	48516.87
550.07	48936.13
550.27	49404.46
550.48	49435.10
550.68	49183.69
550.89	48973.08
551.09	49403.23
551.30	49041.48
551.50	49615.40
551.71	49291.99
551.91	49366.61
552.12	49505.96
552.33	49796.44
552.53	49301.16
552.74	50041.71
552.94	50133.05
553.15	49695.35
553.35	50076.03
553.56	49584.52
553.76	50048.42
553.97	49745.16
554.17	49964.62
554.38	50692.80
554.58	49942.42
554.79	50545.02
554.99	49963.80
555.20	50050.55
555.40	50716.39
555.61	50333.58
555.81	49906.05
556.02	50975.17
556.22	50682.64
556.43	50438.11
556.63	50448.35
556.84	50211.61
557.04	51039.40
557.25	50222.58
557.45	50702.71
557.66	50761.12
557.86	50531.17
558.07	51144.01
558.27	50655.28
558.48	50856.72
558.68	50702.63
558.89	50985.74
559.09	51029.65
559.30	50642.74
559.50	50949.94
559.71	50605.14
559.91	51348.64
560.12	51044.88
560.32	51117.96
560.53	51401.80
560.73	50898.00
560.94	51685.73
561.14	50992.54
561.35	51809.51
561.55	51259.02
561.76	51493.63
561.96	51006.96
562.17	51320.87
562.37	51593.66
562.57	51352.49
562.78	51375.51
562.98	51624.05
563.19	51779.37
563.39	51799.36
563.60	51858.42
563.80	51419.01
564.01	52067.15
564.21	51715.31
564.42	51758.97
564.62	51903.64
564.82	52199.77
565.03	51774.86
565.23	51826.63
565.44	52095.49
565.64	51755.77
565.85	52201.49
566.05	51904.95
566.25	52361.89
566.46	51781.25
566.66	52192.65
566.87	52139.56
567.07	52160.78
567.28	52223.29
567.48	52504.76
567.68	51855.14
567.89	52949.82
568.09	52242.45
568.30	52135.14
568.50	52636.97
568.71	52328.30
568.91	52472.24
569.11	52295.13
569.32	52304.14
569.52	52636.73
569.73	52067.72
569.93	52617.15
570.13	52484.44
570.34	52450.12
570.54	52787.46
570.75	52439.39
570.95	52617.72
571.15	52473.55
571.36	53134.63
571.56	52560.30
571.77	52495.99
571.97	52121.95
572.17	52910.09
572.38	52792.46
572.58	53023.06
572.79	52708.33
572.99	53063.28
573.19	52820.88
573.40	52883.55
573.60	53099.49
573.81	52955.31
574.01	53188.37
574.21	53035.35
574.42	53184.85
574.62	52764.60
574.82	53321.24
575.03	52846.69
575.23	53312.89
575.43	52926.23
575.64	52865.45
575.84	53312.31
576.05	52906.98
576.25	53136.11
576.45	53056.64
576.66	53750.66
576.86	53271.03
577.06	53605.99
577.27	53392.43
577.47	53438.55
577.67	53324.03
577.88	52805.07
578.08	53703.64
578.28	53480.57
578.49	53399.97
578.69	53541.19
578.89	53127.59
579.10	53369.98
579.30	53943.82
579.50	53513.75
579.71	53212.37
579.91	53759.84
580.11	53507.77
580.32	53526.12
580.52	53466.48
580.72	54064.57
580.93	53488.27
581.13	53475.17
581.33	53931.13
581.54	53453.13
581.74	53667.68
581.94	53754.02
582.15	53894.67
582.35	53636.30
582.55	53700.53
582.76	53424.54
582.96	53940.38
583.16	53637.37
583.37	53949.80
583.57	53672.67
583.77	54068.42
583.97	53190.34
584.18	54335.23
584.38	53978.89
584.58	53643.76
584.79	54040.00
584.99	53915.89
585.19	53967.99
585.40	53887.63
585.60	54288.87
585.80	53696.84
586.00	53955.87
586.21	53925.97
586.41	53953.33
586.61	54287.39
586.82	54067.93
587.02	53966.52
587.22	54437.55
587.42	53784.90
587.63	54541.91
587.83	53823.90
588.03	54196.46
588.23	53881.89
588.44	54238.98
588.64	53853.22
588.84	54073.34
589.05	54250.61
589.25	54470.07
589.45	54354.32
589.65	53968.73
589.86	54228.74
590.06	54337.12
590.26	54048.52
590.46	54494.89
590.67	53845.19
590.87	54287.64
591.07	54798.16
591.27	54080.71
591.48	54778.82
591.68	54160.83
591.88	55145.98
592.08	54206.95
592.29	54702.15
592.49	54426.65
592.69	54697.07
592.89	54513.90
593.10	54456.31
593.30	54402.98
593.50	54985.99
593.70	54055.07
593.90	54950.77
594.11	54705.10
594.31	54736.47
594.51	54940.28
594.71	54948.48
594.92	54944.79
595.12	54633.83
595.32	54593.36
595.52	55050.87
595.72	54142.81
595.93	54977.48
596.13	54637.51
596.33	54452.05
596.53	54977.88
596.73	54761.70
596.94	54787.83
597.14	55108.79
597.34	54790.54
597.54	55294.01
597.74	54738.44
597.95	55007.70
598.15	54889.17
598.35	55116.49
598.55	55271.48
598.75	54888.84
598.96	55448.51
599.16	54962.48
599.36	55126.16
599.56	55030.15
599.76	54842.56
599.97	55460.71
600.17	55256.33
600.37	55296.22
600.57	54422.89
600.77	55589.82
600.97	55064.23
601.18	55770.29
601.38	55239.37
601.58	55465.71
601.78	55303.35
601.98	54924.64
602.18	55346.36
602.39	55638.97
602.59	55361.02
602.79	55435.48
602.99	55419.35
603.19	55598.58
603.39	55408.61
603.60	55613.00
603.80	55395.02
604.00	55234.62
604.20	55318.09
604.40	55424.42
604.60	54964.29
604.80	55143.93
605.01	55363.23
605.21	55311.79
605.41	55166.38
605.61	54719.92
605.81	55272.87
606.01	55597.35
606.21	54960.27
606.42	55456.70
606.62	55202.67
606.82	55687.14
607.02	55290.49
607.22	55491.43
607.42	55665.18
607.62	55020.89
607.82	55572.70
608.03	55401.81
