SpectraSuite Data File
++++++++++++++++++++++++++++++++++++
Date: Tue Sep 13 12:50:13 EDT 2022
User: Laboratoire
Dark Spectrum Present: No
Reference Spectrum Present: No
Number of Sampled Component Spectra: 1
Spectrometers: FLMT00174
Integration Time (usec): 12000 (FLMT00174)
Spectra Averaged: 25 (FLMT00174)
Boxcar Smoothing: 0 (FLMT00174)
Correct for Electrical Dark: No (FLMT00174)
Strobe/Lamp Enabled: No (FLMT00174)
Correct for Detector Non-linearity: No (FLMT00174)
Correct for Stray Light: No (FLMT00174)
Number of Pixels in Processed Spectrum: 3648
>>>>>Begin Processed Spectral Data<<<<<
345.74	3143.96
345.96	3143.96
346.18	3143.96
346.39	3146.17
346.61	3162.23
346.83	3174.84
347.05	3177.79
347.27	3179.10
347.49	3170.17
347.71	3203.60
347.93	3195.16
348.15	3189.83
348.36	3174.11
348.58	3198.19
348.80	3182.79
349.02	3193.85
349.24	3198.93
349.46	3306.73
349.68	3326.15
349.90	3332.86
350.11	3351.95
350.33	3337.12
350.55	3332.13
350.77	3339.01
350.99	3314.02
351.21	3340.24
351.43	3325.57
351.65	3337.45
351.86	3310.50
352.08	3335.24
352.30	3322.05
352.52	3332.86
352.74	3314.60
352.96	3334.91
353.18	3329.18
353.39	3360.06
353.61	3331.47
353.83	3367.43
354.05	3366.94
354.27	3353.67
354.49	3359.24
354.70	3338.27
354.92	3337.70
355.14	3333.44
355.36	3337.78
355.58	3335.40
355.80	3335.57
356.02	3344.99
356.23	3335.57
356.45	3343.43
356.67	3334.50
356.89	3365.22
357.11	3334.58
357.33	3354.65
357.54	3337.04
357.76	3349.58
357.98	3333.03
358.20	3358.59
358.42	3344.41
358.63	3349.90
358.85	3355.88
359.07	3339.09
359.29	3334.75
359.51	3357.36
359.73	3343.68
359.94	3358.91
360.16	3343.43
360.38	3359.49
360.60	3336.71
360.82	3358.83
361.03	3366.37
361.25	3363.26
361.47	3353.43
361.69	3368.50
361.91	3339.34
362.12	3351.62
362.34	3352.93
362.56	3377.26
362.78	3348.84
363.00	3364.98
363.21	3367.27
363.43	3384.88
363.65	3347.77
363.87	3362.36
364.09	3370.71
364.30	3363.26
364.52	3377.51
364.74	3366.12
364.96	3368.99
365.17	3376.45
365.39	3387.91
365.61	3356.54
365.83	3364.24
366.05	3359.32
366.26	3360.31
366.48	3368.34
366.70	3401.92
366.92	3396.68
367.13	3388.81
367.35	3369.89
367.57	3369.48
367.79	3388.73
368.01	3383.08
368.22	3408.64
368.44	3382.10
368.66	3389.47
368.88	3378.58
369.09	3384.15
369.31	3373.82
369.53	3392.09
369.75	3381.28
369.96	3401.84
370.18	3393.57
370.40	3401.59
370.62	3391.85
370.83	3376.45
371.05	3407.98
371.27	3404.87
371.49	3396.68
371.70	3416.34
371.92	3414.37
372.14	3406.10
372.36	3390.45
372.57	3426.74
372.79	3410.03
373.01	3408.80
373.22	3401.35
373.44	3412.08
373.66	3412.49
373.88	3402.99
374.09	3376.28
374.31	3403.81
374.53	3368.09
374.75	3393.40
374.96	3421.09
375.18	3437.47
375.40	3417.49
375.61	3410.03
375.83	3401.10
376.05	3403.31
376.27	3411.18
376.48	3398.97
376.70	3392.42
376.92	3417.40
377.13	3415.03
377.35	3409.05
377.57	3414.70
377.79	3423.88
378.00	3411.59
378.22	3436.25
378.44	3424.29
378.65	3448.62
378.87	3421.50
379.09	3442.55
379.30	3422.73
379.52	3450.99
379.74	3437.72
379.96	3438.21
380.17	3414.54
380.39	3441.32
380.61	3435.51
380.82	3435.92
381.04	3451.24
381.26	3467.62
381.47	3466.39
381.69	3487.28
381.91	3483.68
382.12	3490.97
382.34	3499.49
382.56	3496.78
382.77	3482.78
382.99	3492.61
383.21	3490.48
383.42	3518.25
383.64	3501.70
383.86	3491.79
384.07	3522.34
384.29	3521.85
384.51	3501.94
384.72	3519.48
384.94	3519.31
385.16	3524.14
385.37	3519.97
385.59	3523.41
385.81	3540.94
386.02	3543.64
386.24	3546.10
386.46	3533.16
386.67	3566.58
386.89	3573.95
387.11	3572.56
387.32	3567.40
387.54	3589.02
387.76	3577.39
387.97	3605.16
388.19	3617.61
388.40	3587.30
388.62	3605.41
388.84	3623.10
389.05	3622.12
389.27	3630.97
389.49	3639.57
389.70	3626.95
389.92	3645.47
390.14	3656.03
390.35	3665.04
390.57	3648.42
390.78	3683.80
391.00	3672.50
391.22	3700.19
391.43	3691.26
391.65	3694.54
391.86	3702.81
392.08	3746.14
392.30	3725.99
392.51	3743.11
392.73	3767.36
392.95	3744.92
393.16	3748.19
393.38	3780.80
393.59	3780.80
393.81	3804.22
394.03	3782.02
394.24	3781.45
394.46	3788.66
394.67	3810.45
394.89	3793.41
395.11	3825.69
395.32	3837.57
395.54	3847.15
395.75	3832.57
395.97	3832.32
396.19	3824.38
396.40	3864.35
396.62	3866.40
396.83	3873.28
397.05	3886.88
397.26	3900.48
397.48	3891.55
397.70	3885.49
397.91	3923.91
398.13	3882.62
398.34	3912.93
398.56	3930.46
398.78	3911.05
398.99	3950.12
399.21	3918.01
399.42	3941.68
399.64	3946.35
399.85	3939.64
400.07	3942.67
400.29	3988.79
400.50	3953.56
400.72	3998.45
400.93	3964.38
401.15	3974.53
401.36	3981.91
401.58	3993.95
401.79	3984.45
402.01	4014.84
402.23	4011.97
402.44	4012.46
402.66	4013.85
402.87	4020.65
403.09	4026.06
403.30	4044.00
403.52	4020.65
403.73	4032.53
403.95	4021.39
404.16	4046.29
404.38	4056.12
404.60	4039.41
404.81	4053.83
405.03	4073.49
405.24	4077.26
405.46	4087.66
405.67	4089.22
405.89	4122.81
406.10	4085.45
406.32	4114.70
406.53	4127.48
406.75	4134.11
406.96	4137.06
407.18	4128.87
407.39	4122.32
407.61	4128.87
407.82	4146.40
408.04	4176.87
408.25	4160.16
408.47	4176.79
408.68	4196.86
408.90	4152.22
409.12	4214.56
409.33	4218.32
409.55	4192.27
409.76	4199.48
409.98	4213.57
410.19	4204.15
410.41	4249.29
410.62	4250.27
410.84	4225.78
411.05	4242.65
411.27	4282.63
411.48	4267.31
411.70	4287.87
411.91	4282.96
412.12	4295.33
412.34	4276.16
412.55	4312.37
412.77	4313.02
412.98	4334.16
413.20	4329.82
413.41	4328.91
413.63	4328.18
413.84	4357.18
414.06	4386.91
414.27	4376.35
414.49	4402.81
414.70	4392.81
414.92	4423.86
415.13	4412.47
415.35	4427.71
415.56	4421.48
415.78	4428.94
415.99	4464.33
416.21	4492.18
416.42	4502.25
416.63	4497.01
416.85	4530.11
417.06	4501.35
417.28	4484.31
417.49	4569.26
417.71	4540.43
417.92	4547.39
418.14	4555.99
418.35	4594.74
418.57	4607.27
418.78	4611.86
418.99	4601.70
419.21	4641.93
419.42	4686.74
419.64	4646.76
419.85	4653.80
420.07	4720.98
420.28	4720.73
420.50	4669.61
420.71	4716.14
420.92	4736.62
421.14	4769.88
421.35	4758.41
421.57	4761.04
421.78	4777.26
422.00	4811.50
422.21	4835.01
422.42	4840.01
422.64	4826.33
422.85	4898.74
423.07	4908.82
423.28	4880.31
423.50	4916.44
423.71	4974.84
423.92	4989.26
424.14	4979.51
424.35	5011.63
424.57	4998.76
424.78	5056.03
424.99	5085.43
425.21	5107.72
425.42	5122.79
425.64	5093.87
425.85	5132.54
426.06	5131.23
426.28	5148.92
426.49	5207.90
426.71	5169.40
426.92	5211.26
427.13	5246.90
427.35	5322.51
427.56	5304.24
427.78	5313.74
427.99	5355.77
428.20	5382.06
428.42	5396.48
428.63	5455.79
428.84	5353.06
429.06	5427.85
429.27	5462.01
429.49	5473.65
429.70	5554.50
429.91	5508.22
430.13	5559.09
430.34	5575.31
430.56	5583.66
430.77	5646.09
430.98	5594.56
431.20	5671.40
431.41	5700.73
431.62	5715.88
431.84	5680.74
432.05	5735.21
432.26	5763.39
432.48	5708.75
432.69	5813.45
432.91	5816.56
433.12	5827.04
433.33	5840.72
433.55	5923.22
433.76	5942.96
433.97	5899.95
434.19	5921.09
434.40	5991.37
434.61	5993.99
434.83	5994.73
435.04	5987.61
435.25	6050.60
435.47	6068.38
435.68	5994.40
435.89	6101.55
436.11	6104.67
436.32	6130.55
436.53	6159.31
436.75	6087.63
436.96	6168.15
437.17	6120.64
437.39	6146.45
437.60	6189.21
437.81	6211.41
438.03	6227.55
438.24	6232.54
438.45	6311.43
438.67	6283.25
438.88	6334.78
439.09	6381.39
439.31	6349.36
439.52	6392.20
439.73	6354.27
439.94	6299.14
440.16	6384.34
440.37	6339.77
440.58	6424.72
440.80	6443.81
441.01	6381.96
441.22	6546.37
441.44	6522.37
441.65	6477.89
441.86	6505.99
442.08	6520.73
442.29	6513.28
442.50	6592.49
442.71	6534.82
442.93	6584.55
443.14	6573.24
443.35	6624.11
443.57	6540.39
443.78	6636.40
443.99	6662.21
444.20	6577.99
444.42	6663.19
444.63	6679.08
444.84	6715.86
445.06	6750.35
445.27	6673.51
445.48	6673.59
445.69	6716.93
445.91	6721.02
446.12	6649.26
446.33	6733.48
446.54	6815.56
446.76	6720.61
446.97	6785.00
447.18	6762.72
447.39	6809.74
447.61	6834.32
447.82	6846.85
448.03	6809.41
448.25	6891.41
448.46	6892.40
448.67	6909.76
448.88	6841.12
449.10	6935.49
449.31	6960.47
449.52	6906.98
449.73	6920.82
449.95	7010.44
450.16	6893.79
450.37	7040.26
450.58	7132.67
450.79	6937.13
451.01	7052.71
451.22	6962.44
451.43	7047.39
451.64	7093.92
451.86	7073.11
452.07	7105.63
452.28	7121.20
452.49	7232.03
452.71	7105.47
452.92	7116.53
453.13	7159.04
453.34	7173.05
453.55	7223.76
453.77	7262.42
453.98	7244.16
454.19	7187.39
454.40	7227.12
454.62	7269.47
454.83	7216.47
455.04	7334.02
455.25	7241.13
455.46	7476.31
455.68	7335.82
455.89	7338.45
456.10	7367.94
456.31	7384.40
456.52	7425.69
456.74	7412.42
456.95	7520.39
457.16	7445.92
457.37	7522.93
457.58	7492.37
457.80	7460.91
458.01	7470.91
458.22	7720.76
458.43	7538.65
458.64	7580.43
458.86	7497.04
459.07	7595.26
459.28	7552.50
459.49	7668.82
459.70	7804.15
459.91	7726.74
460.13	7691.68
460.34	7751.81
460.55	7692.99
460.76	7802.19
460.97	7803.33
461.19	7743.70
461.40	7949.15
461.61	7854.86
461.82	7857.07
462.03	7898.52
462.24	7895.98
462.46	7882.47
462.67	7899.83
462.88	7967.42
463.09	7976.02
463.30	8061.71
463.51	7970.78
463.72	8148.54
463.94	8116.26
464.15	8110.69
464.36	8094.56
464.57	8256.02
464.78	8224.56
464.99	8233.41
465.20	8181.88
465.42	8301.24
465.63	8318.93
465.84	8305.17
466.05	8397.49
466.26	8356.94
466.47	8488.58
466.68	8392.74
466.90	8516.44
467.11	8463.19
467.32	8541.34
467.53	8670.77
467.74	8525.12
467.95	8597.21
468.16	8677.57
468.37	8747.78
468.59	8718.12
468.80	8848.70
469.01	8737.86
469.22	8839.69
469.43	9017.94
469.64	8939.22
469.85	9026.87
470.06	9043.34
470.28	9163.10
470.49	8974.61
470.70	9143.20
470.91	9269.93
471.12	9169.90
471.33	9388.87
471.54	9274.10
471.75	9290.57
471.96	9499.95
472.17	9424.42
472.39	9637.58
472.60	9475.87
472.81	9680.42
473.02	9616.61
473.23	9771.76
473.44	9781.02
473.65	9792.81
473.86	9880.06
474.07	9922.82
474.28	9954.77
474.49	10134.25
474.71	10107.63
474.92	10216.82
475.13	10174.80
475.34	10208.80
475.55	10248.69
475.76	10321.76
475.97	10522.55
476.18	10495.35
476.39	10589.06
476.60	10736.11
476.81	10689.00
477.02	10833.10
477.23	10803.12
477.44	10848.58
477.65	10989.56
477.87	11120.14
478.08	11108.51
478.29	11164.30
478.50	11382.61
478.71	11337.47
478.92	11439.38
479.13	11457.89
479.34	11494.68
479.55	11591.26
479.76	11586.67
479.97	11638.11
480.18	11910.25
480.39	11786.96
480.60	12004.05
480.81	12072.78
481.02	12127.50
481.23	12154.37
481.44	12334.51
481.65	12383.90
481.86	12527.34
482.07	12318.29
482.28	12797.51
482.49	12639.74
482.71	12729.76
482.92	12864.60
483.13	12988.38
483.34	12905.89
483.55	13016.73
483.76	13035.98
483.97	13220.95
484.18	13230.21
484.39	13332.93
484.60	13276.82
484.81	13589.67
485.02	13464.41
485.23	13689.52
485.44	13766.77
485.65	13866.47
485.86	13806.01
486.07	14017.69
486.28	13952.24
486.49	14149.25
486.70	14184.56
486.91	14347.17
487.12	14308.75
487.33	14345.69
487.54	14579.33
487.75	14628.23
487.96	14649.86
488.17	14605.38
488.38	14773.64
488.59	14788.96
488.80	14915.93
489.01	14880.95
489.22	15167.09
489.43	15140.06
489.64	15070.18
489.85	15452.99
490.06	15190.03
490.26	15445.94
490.47	15443.16
490.68	15594.46
490.89	15777.80
491.10	15563.09
491.31	15773.05
491.52	15945.40
491.73	15854.15
491.94	15830.72
492.15	15992.18
492.36	16081.47
492.57	16051.73
492.78	16123.90
492.99	16167.07
493.20	16316.09
493.41	16314.53
493.62	16367.69
493.83	16351.80
494.04	16437.16
494.25	16625.41
494.46	16638.84
494.67	16509.09
494.88	16719.04
495.08	16707.49
495.29	16849.29
495.50	16969.06
495.71	16852.16
495.92	17048.11
496.13	17042.54
496.34	16967.09
496.55	17057.61
496.76	17297.72
496.97	17037.05
497.18	17320.74
497.39	17223.09
497.60	17484.66
497.81	17260.20
498.02	17449.43
498.22	17257.41
498.43	17607.78
498.64	17559.20
498.85	17544.21
499.06	17621.21
499.27	17811.27
499.48	17457.79
499.69	17648.74
499.90	17722.71
500.11	17800.62
500.32	17986.90
500.52	17828.71
500.73	18055.47
500.94	18100.69
501.15	18075.37
501.36	18121.66
501.57	18028.19
501.78	18128.78
501.99	18303.19
502.20	18302.78
502.41	18333.33
502.61	18308.92
502.82	18451.38
503.03	18362.50
503.24	18535.43
503.45	18378.88
503.66	18606.04
503.87	18554.68
504.08	18757.18
504.28	18625.70
504.49	18682.64
504.70	18729.49
504.91	18832.96
505.12	18637.66
505.33	18911.84
505.54	18886.45
505.75	18848.93
505.95	18958.78
506.16	18883.50
506.37	18908.32
506.58	19138.35
506.79	18973.37
507.00	19201.35
507.21	18982.21
507.41	19095.92
507.62	19144.90
507.83	19375.34
508.04	19095.18
508.25	19459.06
508.46	19232.64
508.67	19525.01
508.87	19339.05
509.08	19542.21
509.29	19400.33
509.50	19609.22
509.71	19621.10
509.92	19784.52
510.12	19589.80
510.33	19732.02
510.54	19698.92
510.75	19804.68
510.96	19952.05
511.17	19987.19
511.37	19966.14
511.58	20007.10
511.79	19900.52
512.00	19917.72
512.21	20130.80
512.42	20172.57
512.62	20187.97
512.83	20320.52
513.04	20227.54
513.25	20435.53
513.46	20071.32
513.66	20563.49
513.87	20410.22
514.08	20574.22
514.29	20460.44
514.50	20500.17
514.71	20719.46
514.91	20620.42
515.12	20622.47
515.33	20802.69
515.54	20739.37
515.75	21005.03
515.95	20795.65
516.16	20889.94
516.37	21024.77
516.58	21094.49
516.78	20955.64
516.99	21079.91
517.20	21115.79
517.41	21143.72
517.62	21235.39
517.82	21199.92
518.03	21507.28
518.24	21666.44
518.45	21330.25
518.66	21621.39
518.86	21471.07
519.07	21721.25
519.28	21403.32
519.49	21835.20
519.69	21880.25
519.90	21877.71
520.11	21919.00
520.32	21903.93
520.52	22065.14
520.73	21880.99
520.94	22166.80
521.15	22093.49
521.36	21919.66
521.56	22365.05
521.77	22013.37
521.98	22415.10
522.19	22169.84
522.39	22390.77
522.60	22255.69
522.81	22414.61
523.02	22308.69
523.22	22613.75
523.43	22640.62
523.64	22574.60
523.84	22705.09
524.05	22818.88
524.26	22765.14
524.47	22746.13
524.67	22780.38
524.88	22922.91
525.09	23083.23
525.30	22905.14
525.50	22977.64
525.71	23056.52
525.92	23082.25
526.13	23271.15
526.33	23151.06
526.54	23048.33
526.75	23226.34
526.95	23439.82
527.16	23152.86
527.37	23548.86
527.58	23598.01
527.78	23485.20
527.99	23655.27
528.20	23749.72
528.40	23607.43
528.61	23549.35
528.82	23805.26
529.03	23755.04
529.23	23752.01
529.44	23967.62
529.65	23975.73
529.85	24077.15
530.06	23998.10
530.27	24095.42
530.47	23809.03
530.68	24348.14
530.89	23930.43
531.09	24238.12
531.30	24172.50
531.51	24032.26
531.72	24358.87
531.92	24323.40
532.13	24523.93
532.34	24419.24
532.54	24414.49
532.75	24537.78
532.96	24533.52
533.16	24636.98
533.37	24750.28
533.58	24682.61
533.78	24766.99
533.99	24850.54
534.20	24592.34
534.40	24773.13
534.61	24891.50
534.82	24952.21
535.02	25005.13
535.23	24993.33
535.44	25082.54
535.64	25005.86
535.85	25109.24
536.06	25150.29
536.26	25086.31
536.47	25113.83
536.68	25427.42
536.88	25089.17
537.09	25385.80
537.29	25106.38
537.50	25568.73
537.71	25340.25
537.91	25448.22
538.12	25658.75
538.33	25455.02
538.53	25669.08
538.74	25665.80
538.95	25714.05
539.15	25642.53
539.36	25805.47
539.56	26033.45
539.77	25653.43
539.98	25769.43
540.18	25847.74
540.39	25788.43
540.60	25935.07
540.80	26034.43
541.01	26053.28
541.21	26064.83
541.42	26183.94
541.63	26136.83
541.83	26349.41
542.04	26300.67
542.25	26167.80
542.45	26318.12
542.66	26257.50
542.86	26426.42
543.07	25973.32
543.28	26527.42
543.48	26379.64
543.69	26572.48
543.89	26458.36
544.10	26812.58
544.31	26676.10
544.51	26606.55
544.72	26738.20
544.92	26628.67
545.13	26871.32
545.33	26848.46
545.54	26721.00
545.75	26939.96
545.95	26848.95
546.16	26852.31
546.36	27144.92
546.57	26646.29
546.78	26294.28
546.98	26667.01
547.19	26163.62
547.39	26898.27
547.60	27068.33
547.80	27350.62
548.01	27422.87
548.22	27167.04
548.42	27337.02
548.63	27457.61
548.83	27323.75
549.04	27539.53
549.24	27409.69
549.45	27494.80
549.65	27733.27
549.86	27387.08
550.07	27482.02
550.27	27709.84
550.48	27763.90
550.68	27690.42
550.89	27731.30
551.09	27852.38
551.30	27758.50
551.50	27913.81
551.71	27839.92
551.91	27847.38
552.12	27990.74
552.33	28151.05
552.53	27801.75
552.74	28174.56
552.94	28204.13
553.15	28039.31
553.35	28302.35
553.56	28088.63
553.76	28367.73
553.97	28134.83
554.17	28340.86
554.38	28732.35
554.58	28321.28
554.79	28675.33
554.99	28406.47
555.20	28467.09
555.40	28724.32
555.61	28622.74
555.81	28493.88
556.02	28996.78
556.22	28904.38
556.43	28796.00
556.63	28951.48
556.84	28828.52
557.04	29224.92
557.25	28788.87
557.45	29120.48
557.66	29104.42
557.86	28888.48
558.07	29330.68
558.27	29063.38
558.48	29225.42
558.68	29176.10
558.89	29281.78
559.09	29353.13
559.30	29259.66
559.50	29466.83
559.71	29290.87
559.91	29778.61
560.12	29488.29
560.32	29588.81
560.53	29731.43
560.73	29599.70
560.94	29806.96
561.14	29567.51
561.35	29969.48
561.55	29809.25
561.76	30015.93
561.96	29669.99
562.17	29949.90
562.37	30130.37
562.57	29949.50
562.78	30016.42
562.98	30221.22
563.19	30214.99
563.39	30333.37
563.60	30440.43
563.80	30154.78
564.01	30592.97
564.21	30349.91
564.42	30325.09
564.62	30498.19
564.82	30699.79
565.03	30542.75
565.23	30612.87
565.44	30691.43
565.64	30657.03
565.85	30868.13
566.05	30789.49
566.25	30991.99
566.46	30753.94
566.66	30977.49
566.87	30897.05
567.07	31029.35
567.28	31075.88
567.48	31300.25
567.68	30904.42
567.89	31511.11
568.09	31232.34
568.30	31266.83
568.50	31553.05
568.71	31493.58
568.91	31699.03
569.11	31469.50
569.32	31622.52
569.52	31723.45
569.73	31456.47
569.93	31796.27
570.13	31782.26
570.34	31719.43
570.54	32021.14
570.75	31896.95
570.95	31960.44
571.15	31875.81
571.36	32262.96
571.56	31890.97
571.77	31927.42
571.97	31778.09
572.17	32298.19
572.38	32260.34
572.58	32386.33
572.79	32367.90
572.99	32333.33
573.19	32345.54
573.40	32379.86
573.60	32496.35
573.81	32443.27
574.01	32686.07
574.21	32699.59
574.42	32808.21
574.62	32602.19
574.82	32950.18
575.03	32752.51
575.23	33089.60
575.43	32866.79
575.64	32867.77
575.84	33268.35
576.05	32929.54
576.25	33131.55
576.45	33126.71
576.66	33557.77
576.86	33292.93
577.06	33445.71
577.27	33416.54
577.47	33454.06
577.67	33454.14
577.88	33159.89
578.08	33742.01
578.28	33825.81
578.49	33707.27
578.69	33809.92
578.89	33731.11
579.10	33858.17
579.30	34270.95
579.50	33960.73
579.71	33856.04
579.91	34283.65
580.11	34177.24
580.32	34092.62
580.52	34160.61
580.72	34496.48
580.93	34064.03
581.13	34259.49
581.33	34649.83
581.54	34476.82
581.74	34372.45
581.94	34598.96
582.15	34850.28
582.35	34650.89
582.55	34820.14
582.76	34733.30
582.96	35231.29
583.16	34993.81
583.37	35110.70
583.57	35025.51
583.77	35406.76
583.97	34745.26
584.18	35456.89
584.38	35271.35
584.58	35096.37
584.79	35449.68
584.99	35422.65
585.19	35400.61
585.40	35403.07
585.60	35787.93
585.80	35469.67
586.00	35838.55
586.21	35755.32
586.41	35854.61
586.61	36080.05
586.82	36039.91
587.02	35848.14
587.22	36246.26
587.42	35793.99
587.63	36264.28
587.83	35857.72
588.03	36141.90
588.23	35939.48
588.44	36213.41
588.64	36078.66
588.84	36193.59
589.05	36404.36
589.25	36494.31
589.45	36529.62
589.65	36440.57
589.86	36672.81
590.06	36776.85
590.26	36783.40
590.46	37071.67
590.67	36657.49
590.87	37188.25
591.07	37202.42
591.27	36765.63
591.48	37239.20
591.68	36910.54
591.88	37501.91
592.08	36972.88
592.29	37370.76
592.49	37363.06
592.69	37634.70
592.89	37474.22
593.10	37547.46
593.30	37416.39
593.50	37955.33
593.70	37248.46
593.90	37945.09
594.11	37805.50
594.31	37877.02
594.51	38096.64
594.71	38098.36
594.92	38024.80
595.12	38032.99
595.32	38138.26
595.52	38328.47
595.72	37823.20
595.93	38485.10
596.13	38306.44
596.33	38131.54
596.53	38568.58
596.73	38437.92
596.94	38484.69
597.14	38908.70
597.34	38706.69
597.54	38920.83
597.74	38687.52
597.95	38885.77
598.15	38916.49
598.35	39061.81
598.55	39194.76
598.75	39043.05
598.96	39414.22
599.16	39100.88
599.36	39302.49
599.56	39331.57
599.76	39244.41
599.97	39802.76
600.17	39552.91
600.37	39879.85
600.57	39185.42
600.77	39858.22
600.97	39547.67
601.18	40172.05
601.38	39845.20
601.58	40108.73
601.78	39997.57
601.98	39807.11
602.18	40228.50
602.39	40503.42
602.59	40300.01
602.79	40267.73
602.99	40411.50
603.19	40438.13
603.39	40241.28
603.60	40357.76
603.80	40390.12
604.00	40384.39
604.20	40429.52
604.40	40749.25
604.60	40471.79
604.80	40615.73
605.01	40892.53
605.21	40761.87
605.41	40843.79
605.61	40695.92
605.81	41209.96
606.01	41301.88
606.21	40826.01
606.42	41272.06
606.62	41118.46
606.82	41497.01
607.02	41252.89
607.22	41426.56
607.42	41603.58
607.62	41174.49
607.82	41461.46
608.03	41459.73
608.23	41475.63
608.43	41307.78
