SpectraSuite Data File
++++++++++++++++++++++++++++++++++++
Date: Tue Sep 20 12:06:57 EDT 2022
User: Laboratoire
Dark Spectrum Present: No
Reference Spectrum Present: No
Number of Sampled Component Spectra: 1
Spectrometers: FLMT00174
Integration Time (usec): 15000 (FLMT00174)
Spectra Averaged: 25 (FLMT00174)
Boxcar Smoothing: 0 (FLMT00174)
Correct for Electrical Dark: No (FLMT00174)
Strobe/Lamp Enabled: No (FLMT00174)
Correct for Detector Non-linearity: No (FLMT00174)
Correct for Stray Light: No (FLMT00174)
Number of Pixels in Processed Spectrum: 3648
>>>>>Begin Processed Spectral Data<<<<<
345.74	3157.07
345.96	3157.07
346.18	3157.07
346.39	3171.24
346.61	3215.97
346.83	3226.12
347.05	3200.57
347.27	3215.23
347.49	3221.78
347.71	3236.69
347.93	3217.36
348.15	3239.80
348.36	3217.85
348.58	3228.17
348.80	3203.92
349.02	3230.47
349.24	3241.93
349.46	3301.65
349.68	3328.03
349.90	3342.94
350.11	3309.52
350.33	3332.86
350.55	3304.19
350.77	3333.68
350.99	3301.82
351.21	3336.47
351.43	3315.58
351.65	3329.92
351.86	3300.83
352.08	3315.50
352.30	3298.13
352.52	3328.93
352.74	3315.25
352.96	3320.49
353.18	3343.43
353.39	3321.97
353.61	3311.48
353.83	3335.90
354.05	3359.16
354.27	3332.86
354.49	3327.95
354.70	3320.74
354.92	3316.56
355.14	3303.37
355.36	3309.93
355.58	3331.72
355.80	3314.35
356.02	3327.70
356.23	3314.02
356.45	3326.64
356.67	3312.38
356.89	3340.40
357.11	3332.13
357.33	3335.81
357.54	3308.12
357.76	3299.61
357.98	3311.57
358.20	3325.57
358.42	3328.03
358.63	3328.69
358.85	3323.12
359.07	3334.67
359.29	3320.41
359.51	3300.75
359.73	3318.28
359.94	3321.15
360.16	3315.09
360.38	3309.27
360.60	3318.86
360.82	3331.06
361.03	3345.07
361.25	3325.41
361.47	3328.44
361.69	3324.75
361.91	3319.92
362.12	3336.55
362.34	3336.06
362.56	3316.15
362.78	3314.60
363.00	3348.59
363.21	3329.75
363.43	3331.06
363.65	3300.51
363.87	3337.45
364.09	3329.42
364.30	3321.72
364.52	3309.52
364.74	3334.67
364.96	3319.27
365.17	3327.70
365.39	3328.69
365.61	3319.92
365.83	3314.02
366.05	3298.87
366.26	3315.91
366.48	3325.41
366.70	3329.26
366.92	3350.07
367.13	3345.40
367.35	3338.35
367.57	3321.31
367.79	3349.90
368.01	3327.38
368.22	3340.40
368.44	3324.84
368.66	3321.81
368.88	3332.13
369.09	3309.60
369.31	3344.01
369.53	3345.73
369.75	3338.84
369.96	3338.68
370.18	3310.25
370.40	3350.31
370.62	3333.36
370.83	3313.78
371.05	3334.18
371.27	3350.72
371.49	3303.21
371.70	3335.98
371.92	3323.12
372.14	3333.36
372.36	3331.88
372.57	3341.71
372.79	3332.29
373.01	3349.41
373.22	3337.70
373.44	3348.35
373.66	3351.05
373.88	3353.26
374.09	3343.02
374.31	3338.19
374.53	3332.54
374.75	3368.09
374.96	3347.45
375.18	3372.43
375.40	3351.38
375.61	3364.32
375.83	3334.34
376.05	3351.79
376.27	3363.50
376.48	3336.39
376.70	3348.92
376.92	3340.97
377.13	3348.51
377.35	3345.15
377.57	3348.92
377.79	3334.91
378.00	3341.88
378.22	3362.93
378.44	3351.13
378.65	3372.10
378.87	3361.37
379.09	3380.87
379.30	3359.57
379.52	3364.08
379.74	3350.72
379.96	3343.19
380.17	3353.75
380.39	3361.45
380.61	3348.59
380.82	3361.21
381.04	3345.73
381.26	3367.60
381.47	3353.67
381.69	3379.89
381.91	3362.27
382.12	3388.00
382.34	3375.30
382.56	3356.21
382.77	3380.62
382.99	3361.37
383.21	3371.12
383.42	3374.64
383.64	3367.60
383.86	3392.50
384.07	3385.46
384.29	3380.05
384.51	3352.28
384.72	3383.57
384.94	3382.10
385.16	3380.87
385.37	3384.88
385.59	3378.74
385.81	3393.40
386.02	3390.62
386.24	3400.94
386.46	3413.80
386.67	3411.01
386.89	3412.82
387.11	3438.46
387.32	3424.86
387.54	3408.64
387.76	3423.22
387.97	3436.00
388.19	3434.94
388.40	3428.96
388.62	3430.02
388.84	3447.14
389.05	3448.94
389.27	3442.64
389.49	3456.07
389.70	3435.75
389.92	3433.95
390.14	3460.58
390.35	3466.88
390.57	3481.14
390.78	3459.26
391.00	3456.07
391.22	3470.32
391.43	3460.82
391.65	3501.78
391.86	3484.25
392.08	3511.45
392.30	3478.35
392.51	3483.02
392.73	3519.88
392.95	3493.26
393.16	3487.45
393.38	3520.13
393.59	3503.42
393.81	3522.18
394.03	3502.52
394.24	3514.23
394.46	3501.94
394.67	3510.87
394.89	3494.08
395.11	3526.11
395.32	3538.40
395.54	3543.64
395.75	3522.34
395.97	3513.33
396.19	3499.00
396.40	3532.66
396.62	3531.52
396.83	3530.21
397.05	3518.90
397.26	3524.72
397.48	3536.19
397.70	3541.02
397.91	3556.09
398.13	3512.10
398.34	3531.68
398.56	3563.14
398.78	3551.92
398.99	3578.70
399.21	3536.84
399.42	3584.11
399.64	3547.08
399.85	3570.92
400.07	3549.70
400.29	3575.34
400.50	3570.84
400.72	3580.50
400.93	3558.14
401.15	3572.48
401.36	3577.23
401.58	3611.72
401.79	3591.97
402.01	3596.81
402.23	3624.66
402.44	3615.57
402.66	3624.66
402.87	3645.55
403.09	3638.18
403.30	3644.57
403.52	3610.65
403.73	3633.26
403.95	3647.43
404.16	3668.73
404.38	3652.27
404.60	3666.19
404.81	3680.45
405.03	3700.19
405.24	3703.63
405.46	3710.76
405.67	3725.17
405.89	3725.50
406.10	3730.42
406.32	3749.91
406.53	3766.46
406.75	3781.78
406.96	3785.47
407.18	3786.12
407.39	3781.53
407.61	3798.65
407.82	3821.84
408.04	3847.81
408.25	3845.92
408.47	3850.67
408.68	3878.28
408.90	3855.34
409.12	3921.29
409.33	3914.98
409.55	3914.82
409.76	3930.87
409.98	3932.02
410.19	3951.60
410.41	3976.91
410.62	3989.53
410.84	3979.45
411.05	4029.42
411.27	4024.18
411.48	4042.44
411.70	4039.09
411.91	4052.19
412.12	4087.66
412.34	4059.65
412.55	4090.37
412.77	4067.51
412.98	4126.82
413.20	4106.75
413.41	4103.31
413.63	4134.36
413.84	4121.99
414.06	4142.30
414.27	4143.78
414.49	4143.86
414.70	4161.47
414.92	4169.91
415.13	4153.77
415.35	4169.34
415.56	4182.12
415.78	4175.97
415.99	4194.65
416.21	4202.19
416.42	4202.10
416.63	4206.69
416.85	4214.23
417.06	4182.53
417.28	4172.45
417.49	4215.05
417.71	4199.81
417.92	4191.95
418.14	4196.12
418.35	4221.27
418.57	4212.10
418.78	4231.43
418.99	4199.73
419.21	4226.60
419.42	4244.70
419.64	4210.05
419.85	4223.81
420.07	4259.78
420.28	4245.60
420.50	4223.81
420.71	4227.25
420.92	4229.55
421.14	4253.79
421.35	4229.22
421.57	4242.65
421.78	4256.09
422.00	4266.33
422.21	4271.57
422.42	4276.73
422.64	4266.66
422.85	4284.76
423.07	4315.64
423.28	4298.44
423.50	4313.60
423.71	4318.67
423.92	4354.88
424.14	4316.14
424.35	4340.55
424.57	4379.21
424.78	4391.17
424.99	4390.35
425.21	4396.58
425.42	4389.12
425.64	4427.71
425.85	4434.10
426.06	4422.79
426.28	4439.01
426.49	4487.67
426.71	4491.52
426.92	4486.12
427.13	4513.89
427.35	4582.04
427.56	4571.80
427.78	4563.61
427.99	4602.85
428.20	4654.46
428.42	4654.87
428.63	4677.48
428.84	4621.12
429.06	4676.33
429.27	4698.78
429.49	4739.49
429.70	4793.07
429.91	4759.81
430.13	4816.90
430.34	4827.31
430.56	4843.36
430.77	4879.98
430.98	4883.34
431.20	4943.80
431.41	4967.31
431.62	5015.97
431.84	5011.79
432.05	5055.12
432.26	5090.59
432.48	5066.92
432.69	5171.04
432.91	5151.62
433.12	5224.78
433.33	5211.92
433.55	5320.70
433.76	5331.93
433.97	5341.10
434.19	5365.76
434.40	5450.63
434.61	5470.94
434.83	5501.75
435.04	5482.82
435.25	5577.68
435.47	5616.68
435.68	5577.68
435.89	5708.59
436.11	5711.54
436.32	5755.37
436.53	5799.36
436.75	5758.89
436.96	5823.85
437.17	5801.57
437.39	5856.45
437.60	5926.90
437.81	5955.74
438.03	5980.64
438.24	6037.25
438.45	6136.53
438.67	6076.00
438.88	6170.61
439.09	6203.79
439.31	6201.50
439.52	6254.50
439.73	6223.94
439.94	6210.51
440.16	6281.78
440.37	6261.54
440.58	6366.89
440.80	6360.99
441.01	6315.36
441.22	6485.84
441.44	6413.91
441.65	6408.01
441.86	6436.77
442.08	6456.75
442.29	6463.55
442.50	6486.98
442.71	6467.16
442.93	6531.96
443.14	6479.86
443.35	6542.52
443.57	6465.19
443.78	6535.72
443.99	6549.90
444.20	6484.20
444.42	6552.19
444.63	6505.99
444.84	6570.62
445.06	6619.61
445.27	6539.82
445.48	6523.27
445.69	6553.25
445.91	6544.33
446.12	6491.73
446.33	6521.47
446.54	6607.16
446.76	6539.49
446.97	6503.20
447.18	6541.62
447.39	6551.78
447.61	6564.72
447.82	6581.43
448.03	6518.44
448.25	6609.61
448.46	6621.66
448.67	6622.48
448.88	6535.64
449.10	6628.95
449.31	6637.22
449.52	6597.82
449.73	6595.69
449.95	6677.61
450.16	6587.09
450.37	6687.52
450.58	6751.83
450.79	6595.20
451.01	6652.79
451.22	6610.43
451.43	6646.64
451.64	6727.25
451.86	6716.19
452.07	6697.19
452.28	6737.90
452.49	6824.00
452.71	6707.92
452.92	6732.90
453.13	6775.42
453.34	6776.65
453.55	6877.82
453.77	6882.08
453.98	6884.29
454.19	6831.78
454.40	6890.84
454.62	6965.14
454.83	6880.44
455.04	6974.32
455.25	6918.53
455.46	7134.06
455.68	7029.94
455.89	7040.92
456.10	7067.13
456.31	7131.76
456.52	7164.37
456.74	7172.40
456.95	7311.08
457.16	7293.88
457.37	7374.41
457.58	7358.52
457.80	7356.06
458.01	7350.49
458.22	7649.16
458.43	7530.63
458.64	7566.02
458.86	7481.97
459.07	7617.71
459.28	7655.88
459.49	7762.29
459.70	7931.62
459.91	7868.21
460.13	7888.94
460.34	7969.79
460.55	7941.70
460.76	8092.84
460.97	8121.18
461.19	8132.81
461.40	8412.32
461.61	8329.91
461.82	8395.44
462.03	8524.47
462.24	8496.37
462.46	8516.03
462.67	8626.70
462.88	8741.55
463.09	8753.92
463.30	8917.59
463.51	8877.62
463.72	9077.01
463.94	9178.26
464.15	9182.11
464.36	9170.15
464.57	9440.64
464.78	9498.64
464.99	9529.12
465.20	9557.38
465.42	9776.92
465.63	9824.84
465.84	9854.74
466.05	10058.48
466.26	10145.80
466.47	10296.70
466.68	10214.37
466.90	10461.84
467.11	10491.17
467.32	10634.04
467.53	10815.32
467.74	10708.09
467.95	10863.16
468.16	11099.74
468.37	11243.35
468.59	11272.35
468.80	11508.36
469.01	11401.53
469.22	11691.03
469.43	11968.82
469.64	11888.87
469.85	12041.65
470.06	12167.80
470.28	12338.27
470.49	12139.54
470.70	12462.38
470.91	12741.15
471.12	12638.34
471.33	12943.41
471.54	12892.54
471.75	12979.53
471.96	13341.37
472.17	13317.78
472.39	13672.08
472.60	13452.45
472.81	13797.90
473.02	13733.02
473.23	14027.85
473.44	14093.63
473.65	14059.63
473.86	14256.40
474.07	14322.92
474.28	14375.02
474.49	14816.81
474.71	14723.34
474.92	14931.49
475.13	14813.12
475.34	14952.79
475.55	15001.45
475.76	15130.80
475.97	15463.15
476.18	15456.27
476.39	15615.60
476.60	15725.78
476.81	15803.36
477.02	15953.02
477.23	15924.35
477.44	15887.90
477.65	16120.63
477.87	16249.24
478.08	16322.64
478.29	16268.49
478.50	16677.84
478.71	16478.53
478.92	16583.30
479.13	16616.81
479.34	16669.97
479.55	16819.15
479.76	16723.30
479.97	16797.85
480.18	17249.30
480.39	16857.08
480.60	17219.81
480.81	17177.05
481.02	17195.07
481.23	17273.55
481.44	17432.39
481.65	17492.85
481.86	17679.87
482.07	17305.34
482.28	18019.83
482.49	17630.88
482.71	17684.70
482.92	17831.50
483.13	17969.21
483.34	17816.75
483.55	17909.81
483.76	17842.15
483.97	18113.96
484.18	17972.07
484.39	18152.70
484.60	18017.13
484.81	18327.27
485.02	18165.24
485.23	18421.97
485.44	18412.88
485.65	18520.85
485.86	18336.53
486.07	18601.04
486.28	18525.84
486.49	18649.79
486.70	18669.37
486.91	18858.76
487.12	18754.97
487.33	18643.31
487.54	19018.83
487.75	18982.54
487.96	18993.19
488.17	18945.02
488.38	19157.76
488.59	19159.81
488.80	19245.01
489.01	19241.32
489.22	19477.49
489.43	19378.21
489.64	19296.70
489.85	19698.18
490.06	19348.80
490.26	19655.34
490.47	19551.14
490.68	19809.02
490.89	20008.25
491.10	19711.94
491.31	20004.72
491.52	20208.86
491.73	20099.09
491.94	20081.73
492.15	20329.78
492.36	20432.67
492.57	20432.91
492.78	20477.48
492.99	20650.65
493.20	20770.50
493.41	20770.17
493.62	20832.92
493.83	20886.82
494.04	20964.32
494.25	21167.97
494.46	21231.54
494.67	21204.26
494.88	21334.76
495.08	21390.54
495.29	21552.17
495.50	21810.70
495.71	21759.34
495.92	22011.49
496.13	22095.04
496.34	22030.41
496.55	22194.90
496.76	22495.87
496.97	22323.84
497.18	22698.78
497.39	22606.87
497.60	23114.60
497.81	22763.34
498.02	23156.87
498.22	22934.06
498.43	23489.38
498.64	23538.04
498.85	23603.25
499.06	23738.42
499.27	24134.49
499.48	23705.81
499.69	24123.84
499.90	24337.16
500.11	24603.31
500.32	24913.46
500.52	24668.11
500.73	25254.81
500.94	25374.58
501.15	25439.79
501.36	25559.88
501.57	25498.85
501.78	25860.85
501.99	26226.53
502.20	26152.97
502.41	26430.76
502.61	26514.64
502.82	26951.27
503.03	26793.90
503.24	27368.32
503.45	27198.91
503.66	27700.83
503.87	27665.52
504.08	28156.79
504.28	28089.20
504.49	28452.18
504.70	28657.80
504.91	28931.49
505.12	28867.68
505.33	29512.46
505.54	29569.31
505.75	29720.12
505.95	30017.65
506.16	30124.23
506.37	30125.29
506.58	30729.85
506.79	30446.99
507.00	31114.95
507.21	30998.79
507.41	31183.44
507.62	31595.82
507.83	32097.81
508.04	31916.45
508.25	32517.07
508.46	32403.45
508.67	33067.40
508.87	32930.60
509.08	33502.07
509.29	33536.55
509.50	33837.20
509.71	34008.41
509.92	34359.75
510.12	34260.88
510.33	34591.83
510.54	34659.09
510.75	35015.84
510.96	35348.27
511.17	35754.09
511.37	35786.86
511.58	36138.54
511.79	36003.54
512.00	36107.33
512.21	36850.33
512.42	36877.53
512.62	37140.32
512.83	37515.02
513.04	37464.31
513.25	37945.42
513.46	37216.02
513.66	38449.79
513.87	38161.44
514.08	38680.48
514.29	38505.34
514.50	38601.67
514.71	39179.94
514.91	39022.16
515.12	39103.75
515.33	39519.08
515.54	39388.17
515.75	40002.81
515.95	39794.16
516.16	39861.25
516.37	40423.71
516.58	40528.15
516.78	40357.03
516.99	40696.83
517.20	40798.98
517.41	40808.81
517.62	41084.96
517.82	40931.36
518.03	41612.43
518.24	41996.30
518.45	41265.67
518.66	41693.94
518.86	41425.17
519.07	41927.65
519.28	41201.94
519.49	41944.28
519.69	42011.46
519.90	42127.54
520.11	42231.57
520.32	42068.47
520.52	42460.13
520.73	42078.96
520.94	42516.49
521.15	42488.47
521.36	41889.64
521.56	42698.84
521.77	41930.60
521.98	42544.26
522.19	41961.41
522.39	42283.84
522.60	42100.18
522.81	42257.38
523.02	42033.41
523.22	42278.51
523.43	42391.31
523.64	42161.53
523.84	42178.82
524.05	42503.13
524.26	42306.86
524.47	41923.15
524.67	41912.50
524.88	42102.63
525.09	42301.53
525.30	41951.49
525.50	41767.01
525.71	41847.54
525.92	41799.78
526.13	41900.46
526.33	41605.39
526.54	41291.23
526.75	41525.93
526.95	41762.01
527.16	40884.75
527.37	41410.17
527.58	41439.66
527.78	41180.64
527.99	41402.47
528.20	41455.47
528.40	41030.89
528.61	40719.27
528.82	41102.57
529.03	40810.69
529.23	40651.52
529.44	40888.02
529.65	40689.29
529.85	40630.72
530.06	40461.06
530.27	40402.98
530.47	39906.23
530.68	40603.27
530.89	39709.46
531.09	40328.11
531.30	40072.19
531.51	39659.49
531.72	40041.23
531.92	39896.32
532.13	40130.93
532.34	39795.31
532.54	39679.31
532.75	39725.11
532.96	39440.27
533.16	39622.79
533.37	39673.74
533.58	39332.63
533.78	39518.67
533.99	39532.43
534.20	39088.84
534.40	39284.79
534.61	39330.17
534.82	39285.69
535.02	39307.57
535.23	39099.33
535.44	39270.87
535.64	39085.73
535.85	39114.97
536.06	39040.18
536.26	38886.50
536.47	38965.23
536.68	39302.57
536.88	38665.65
537.09	39138.57
537.29	38601.59
537.50	39204.35
537.71	38770.34
537.91	38856.60
538.12	38954.99
538.33	38670.97
538.53	38907.06
538.74	38926.32
538.95	38824.33
539.15	38607.24
539.36	38879.05
539.56	39051.49
539.77	38616.17
539.98	38827.77
540.18	38951.38
540.39	38676.05
540.60	38899.45
540.80	39055.91
541.01	38922.71
541.21	38927.87
541.42	39012.66
541.63	38939.91
541.83	39123.66
542.04	39143.24
542.25	39046.98
542.45	39309.12
542.66	39223.35
542.86	39474.43
543.07	38627.31
543.28	39413.73
543.48	39268.90
543.69	39489.59
543.89	39333.37
544.10	39848.64
544.31	39737.88
544.51	39560.86
544.72	39727.48
544.92	39702.17
545.13	40094.89
545.33	39996.99
545.54	39834.55
545.75	40192.53
545.95	40016.82
546.16	40040.57
546.36	40534.22
546.57	39946.86
546.78	39429.21
546.98	40027.14
547.19	39378.51
547.39	40297.80
547.60	40485.80
547.80	41141.89
548.01	41262.23
548.22	40969.04
548.42	41235.03
548.63	41447.36
548.83	41381.99
549.04	41721.96
549.24	41361.84
549.45	41717.45
549.65	42011.13
549.86	41564.26
550.07	41898.98
550.27	42326.93
550.48	42498.14
550.68	42374.52
550.89	42433.67
551.09	42749.79
551.30	42729.72
551.50	43074.84
551.71	43008.49
551.91	43044.29
552.12	43274.97
552.33	43679.24
552.53	43312.82
552.74	44077.45
552.94	44242.92
553.15	44172.23
553.35	44460.66
553.56	44220.07
553.76	44791.37
553.97	44521.45
554.17	44881.32
554.38	45630.46
554.58	45114.95
554.79	45888.67
554.99	45481.13
555.20	45769.56
555.40	46418.36
555.61	46137.13
555.81	46068.81
556.02	47042.09
556.22	46896.03
556.43	46784.78
556.63	47049.62
556.84	47162.59
557.04	47920.01
557.25	47466.35
557.45	48021.67
557.66	48135.70
557.86	48103.51
558.07	48909.02
558.27	48483.61
558.48	48658.26
558.68	48853.56
558.89	49096.94
559.09	49339.58
559.30	49307.14
559.50	49679.05
559.71	49520.29
559.91	50412.96
560.12	50260.59
560.32	50498.24
560.53	50895.96
560.73	50765.87
560.94	51315.71
561.14	51054.88
561.35	51811.32
561.55	51701.22
561.76	52070.42
561.96	51527.63
562.17	52226.40
562.37	52698.50
562.57	52469.29
562.78	52654.34
562.98	53113.17
563.19	53206.97
563.39	53601.98
563.60	53625.90
563.80	53260.70
564.01	54148.13
564.21	53975.45
564.42	54045.16
564.62	54356.78
564.82	54793.16
565.03	54463.35
565.23	54674.87
565.44	55130.25
565.64	55084.46
565.85	55546.65
566.05	55419.84
566.25	55936.33
566.46	55686.15
566.66	56026.61
566.87	56231.41
567.07	56279.90
567.28	56502.31
567.48	56969.74
567.68	56288.42
567.89	57318.71
568.09	56958.84
568.30	57070.99
568.50	57638.44
568.71	57439.54
568.91	57802.85
569.11	57436.59
569.32	57591.17
569.52	57815.22
569.73	57277.84
569.93	58022.97
570.13	58004.21
570.34	57898.53
570.54	58619.50
570.75	58432.89
570.95	58406.35
571.15	58225.47
571.36	58861.24
571.56	58370.22
571.77	58469.59
571.97	58055.41
572.17	58926.45
572.38	58824.38
572.58	59140.83
572.79	58888.69
572.99	58923.58
573.19	59037.37
573.40	58864.36
573.60	59054.90
573.81	58927.35
574.01	59279.77
574.21	59178.60
574.42	59314.66
574.62	59044.66
574.82	59552.88
575.03	59221.85
575.23	59648.40
575.43	59247.33
575.64	59190.23
575.84	59653.48
576.05	58968.47
576.25	59110.11
576.45	58887.70
576.66	59409.94
576.86	58870.66
577.06	59298.85
577.27	59000.91
577.47	59090.53
577.67	58952.75
577.88	58217.12
578.08	58879.67
578.28	58987.48
578.49	58683.73
578.69	58822.58
578.89	58360.23
579.10	58566.01
579.30	59206.04
579.50	58530.54
579.71	58002.08
579.91	58462.63
580.11	58048.61
580.32	57888.87
580.52	57822.02
580.72	58313.53
580.93	57456.83
581.13	57517.69
581.33	57942.69
581.54	57392.69
581.74	57509.50
581.94	57493.36
582.15	57744.12
582.35	57230.08
582.55	57267.92
582.76	56641.08
582.96	57097.37
583.16	56497.81
583.37	56676.88
583.57	56301.04
583.77	56809.42
583.97	55534.28
584.18	56654.52
584.38	56280.39
584.58	55790.03
584.79	56181.35
584.99	55791.09
585.19	55543.70
585.40	55265.01
585.60	55433.35
585.80	54893.51
586.00	55141.39
586.21	54971.74
586.41	54932.17
586.61	55141.80
586.82	54766.37
587.02	54413.71
587.22	54618.75
587.42	53817.18
587.63	54399.37
587.83	53593.62
588.03	53962.91
588.23	53475.90
588.44	53615.82
588.64	53105.88
588.84	53217.37
589.05	53336.97
589.25	53156.26
589.45	53039.36
589.65	52773.12
589.86	52948.51
590.06	52810.64
590.26	52377.78
590.46	52655.65
590.67	51855.96
590.87	52439.30
591.07	52395.64
591.27	51746.85
591.48	52112.04
591.68	51406.56
591.88	52256.71
592.08	51318.57
592.29	51544.10
592.49	51472.42
592.69	51499.29
592.89	50988.61
593.10	51080.93
593.30	50778.65
593.50	51243.13
593.70	50109.45
593.90	50809.04
594.11	50492.18
594.31	50414.11
594.51	50548.29
594.71	50418.37
594.92	50418.12
595.12	50088.40
595.32	49935.46
595.52	50104.95
595.72	49339.66
595.93	49893.35
596.13	49524.47
596.33	49179.92
596.53	49567.56
596.73	49449.02
596.94	49203.02
597.14	49434.85
597.34	49070.72
597.54	49298.95
597.74	48813.34
597.95	48781.55
598.15	48622.46
598.35	48643.60
598.55	48724.86
598.75	48415.70
598.96	48979.47
599.16	48528.26
599.36	48570.53
599.56	48415.78
599.76	48197.63
599.97	48602.80
600.17	48246.70
600.37	48379.25
600.57	47683.92
600.77	48401.04
600.97	47876.68
601.18	48314.12
601.38	47866.27
601.58	48154.13
601.78	47867.75
601.98	47680.24
602.18	47933.53
602.39	48188.54
602.59	47927.06
602.79	47713.41
602.99	47736.68
603.19	47716.03
603.39	47532.86
603.60	47469.46
603.80	47588.57
604.00	47378.94
604.20	47508.62
604.40	47626.25
604.60	47391.64
604.80	47399.09
605.01	47527.05
605.21	47228.13
605.41	47231.32
605.61	46927.57
605.81	47187.33
606.01	47422.35
606.21	47026.36
606.42	47491.99
606.62	47253.11
606.82	47657.38
607.02	47173.32
607.22	47417.60
607.42	47528.93
607.62	47004.81
607.82	47238.28
