SpectraSuite Data File
++++++++++++++++++++++++++++++++++++
Date: Tue Sep 20 11:40:00 EDT 2022
User: Laboratoire
Dark Spectrum Present: No
Reference Spectrum Present: No
Number of Sampled Component Spectra: 1
Spectrometers: FLMT00174
Integration Time (usec): 15000 (FLMT00174)
Spectra Averaged: 25 (FLMT00174)
Boxcar Smoothing: 0 (FLMT00174)
Correct for Electrical Dark: No (FLMT00174)
Strobe/Lamp Enabled: No (FLMT00174)
Correct for Detector Non-linearity: No (FLMT00174)
Correct for Stray Light: No (FLMT00174)
Number of Pixels in Processed Spectrum: 3648
>>>>>Begin Processed Spectral Data<<<<<
345.74	3134.87
345.96	3134.87
346.18	3134.87
346.39	3156.49
346.61	3201.63
346.83	3203.11
347.05	3212.94
347.27	3186.07
347.49	3207.45
347.71	3191.96
347.93	3209.58
348.15	3207.12
348.36	3191.14
348.58	3182.22
348.80	3183.12
349.02	3200.16
349.24	3202.04
349.46	3297.31
349.68	3310.91
349.90	3325.33
350.11	3312.30
350.33	3296.08
350.55	3288.63
350.77	3318.77
350.99	3297.15
351.21	3305.18
351.43	3284.70
351.65	3326.64
351.86	3289.45
352.08	3340.16
352.30	3284.04
352.52	3327.38
352.74	3280.76
352.96	3301.65
353.18	3308.04
353.39	3305.26
353.61	3302.72
353.83	3322.46
354.05	3317.05
354.27	3317.71
354.49	3321.48
354.70	3297.97
354.92	3302.39
355.14	3294.53
355.36	3293.13
355.58	3319.92
355.80	3295.67
356.02	3300.51
356.23	3310.83
356.45	3297.89
356.67	3325.74
356.89	3330.08
357.11	3295.26
357.33	3336.63
357.54	3313.53
357.76	3314.02
357.98	3299.03
358.20	3316.64
358.42	3312.06
358.63	3315.42
358.85	3311.98
359.07	3322.54
359.29	3291.66
359.51	3311.57
359.73	3292.56
359.94	3308.78
360.16	3299.11
360.38	3283.63
360.60	3293.95
360.82	3307.39
361.03	3302.39
361.25	3310.42
361.47	3328.36
361.69	3319.43
361.91	3308.04
362.12	3311.57
362.34	3313.94
362.56	3323.69
362.78	3307.63
363.00	3334.58
363.21	3309.68
363.43	3313.12
363.65	3294.20
363.87	3313.29
364.09	3313.12
364.30	3300.42
364.52	3298.21
364.74	3320.41
364.96	3298.54
365.17	3307.47
365.39	3307.47
365.61	3308.29
365.83	3303.05
366.05	3324.51
366.26	3304.60
366.48	3318.69
366.70	3327.79
366.92	3336.80
367.13	3324.84
367.35	3322.54
367.57	3325.57
367.79	3342.61
368.01	3311.57
368.22	3335.98
368.44	3303.37
368.66	3305.26
368.88	3316.23
369.09	3332.78
369.31	3321.15
369.53	3311.89
369.75	3321.40
369.96	3345.97
370.18	3321.15
370.40	3332.05
370.62	3327.70
370.83	3324.92
371.05	3344.66
371.27	3335.81
371.49	3324.10
371.70	3331.88
371.92	3322.05
372.14	3322.79
372.36	3331.39
372.57	3343.68
372.79	3330.00
373.01	3328.93
373.22	3320.90
373.44	3328.44
373.66	3312.06
373.88	3331.55
374.09	3315.58
374.31	3316.15
374.53	3324.51
374.75	3338.60
374.96	3340.73
375.18	3346.87
375.40	3326.31
375.61	3331.64
375.83	3328.52
376.05	3335.65
376.27	3346.38
376.48	3335.90
376.70	3338.35
376.92	3331.14
377.13	3338.84
377.35	3343.76
377.57	3333.77
377.79	3334.42
378.00	3337.70
378.22	3347.61
378.44	3331.64
378.65	3353.92
378.87	3360.88
379.09	3361.78
379.30	3321.97
379.52	3349.90
379.74	3367.68
379.96	3350.39
380.17	3326.07
380.39	3358.75
380.61	3352.77
380.82	3341.30
381.04	3330.82
381.26	3365.39
381.47	3347.12
381.69	3374.89
381.91	3337.86
382.12	3353.92
382.34	3363.58
382.56	3373.41
382.77	3351.79
382.99	3360.23
383.21	3365.71
383.42	3374.23
383.64	3365.88
383.86	3355.39
384.07	3370.14
384.29	3362.93
384.51	3350.80
384.72	3374.81
384.94	3358.91
385.16	3366.78
385.37	3374.32
385.59	3375.54
385.81	3364.98
386.02	3375.22
386.24	3378.58
386.46	3366.21
386.67	3386.68
386.89	3399.05
387.11	3411.59
387.32	3408.15
387.54	3394.39
387.76	3399.05
387.97	3421.91
388.19	3406.51
388.40	3401.51
388.62	3393.24
388.84	3412.41
389.05	3428.14
389.27	3406.35
389.49	3436.74
389.70	3408.39
389.92	3427.40
390.14	3409.46
390.35	3425.92
390.57	3446.98
390.78	3453.28
391.00	3429.86
391.22	3455.74
391.43	3435.67
391.65	3464.51
391.86	3481.71
392.08	3483.68
392.30	3459.02
392.51	3471.63
392.73	3498.91
392.95	3491.70
393.16	3484.33
393.38	3496.29
393.59	3489.74
393.81	3510.63
394.03	3497.77
394.24	3507.02
394.46	3519.15
394.67	3512.59
394.89	3500.63
395.11	3545.61
395.32	3530.45
395.54	3536.51
395.75	3540.69
395.97	3514.07
396.19	3511.45
396.40	3532.91
396.62	3541.27
396.83	3548.06
397.05	3525.54
397.26	3542.74
397.48	3552.16
397.70	3541.92
397.91	3549.29
398.13	3559.21
398.34	3540.04
398.56	3566.17
398.78	3562.81
398.99	3592.71
399.21	3538.56
399.42	3572.39
399.64	3552.32
399.85	3568.13
400.07	3549.87
400.29	3577.88
400.50	3579.36
400.72	3573.30
400.93	3549.05
401.15	3563.38
401.36	3576.90
401.58	3604.51
401.79	3582.63
402.01	3583.78
402.23	3590.33
402.44	3612.78
402.66	3579.52
402.87	3614.75
403.09	3605.98
403.30	3605.90
403.52	3591.81
403.73	3583.21
403.95	3613.68
404.16	3609.75
404.38	3622.53
404.60	3618.92
404.81	3623.84
405.03	3640.47
405.24	3658.41
405.46	3645.71
405.67	3668.16
405.89	3654.15
406.10	3663.08
406.32	3670.70
406.53	3688.39
406.75	3715.34
406.96	3682.82
407.18	3697.32
407.39	3699.61
407.61	3739.92
407.82	3729.51
408.04	3745.16
408.25	3736.97
408.47	3759.25
408.68	3771.62
408.90	3756.88
409.12	3777.27
409.33	3802.18
409.55	3797.75
409.76	3819.46
409.98	3837.40
410.19	3835.52
410.41	3857.23
410.62	3882.62
410.84	3852.80
411.05	3872.71
411.27	3906.87
411.48	3921.29
411.70	3926.04
411.91	3937.26
412.12	3942.42
412.34	3939.23
412.55	3980.84
412.77	3954.55
412.98	4004.68
413.20	4007.87
413.41	4020.33
413.63	4029.83
413.84	4040.72
414.06	4082.26
414.27	4086.19
414.49	4083.90
414.70	4089.38
414.92	4125.02
415.13	4106.18
415.35	4129.69
415.56	4166.31
415.78	4154.84
415.99	4181.62
416.21	4178.18
416.42	4202.51
416.63	4221.19
416.85	4199.32
417.06	4208.58
417.28	4184.08
417.49	4249.29
417.71	4233.32
417.92	4219.96
418.14	4248.39
418.35	4268.87
418.57	4251.50
418.78	4254.53
418.99	4250.60
419.21	4288.69
419.42	4251.50
419.64	4251.09
419.85	4282.38
420.07	4323.84
420.28	4278.29
420.50	4276.81
420.71	4274.85
420.92	4269.36
421.14	4304.34
421.35	4271.65
421.57	4296.31
421.78	4289.92
422.00	4294.26
422.21	4292.54
422.42	4320.07
422.64	4281.57
422.85	4300.82
423.07	4328.10
423.28	4315.40
423.50	4319.33
423.71	4322.93
423.92	4347.59
424.14	4320.97
424.35	4318.59
424.57	4351.93
424.78	4375.85
424.99	4362.83
425.21	4372.33
425.42	4361.35
425.64	4355.37
425.85	4372.50
426.06	4365.86
426.28	4348.17
426.49	4418.37
426.71	4386.75
426.92	4396.58
427.13	4425.91
427.35	4457.61
427.56	4461.70
427.78	4451.63
427.99	4458.43
428.20	4481.45
428.42	4501.84
428.63	4505.29
428.84	4453.10
429.06	4494.64
429.27	4556.40
429.49	4531.91
429.70	4581.06
429.91	4581.96
430.13	4587.20
430.34	4608.50
430.56	4620.87
430.77	4661.91
430.98	4637.09
431.20	4663.47
431.41	4686.49
431.62	4712.21
431.84	4673.46
432.05	4734.99
432.26	4758.91
432.48	4747.85
432.69	4817.64
432.91	4817.72
433.12	4830.99
433.33	4864.99
433.55	4923.64
433.76	4940.68
433.97	4909.39
434.19	4963.29
434.40	4978.12
434.61	5022.60
434.83	5052.50
435.04	5060.20
435.25	5129.34
435.47	5121.40
435.68	5129.01
435.89	5220.68
436.11	5193.16
436.32	5257.79
436.53	5260.66
436.75	5275.90
436.96	5331.44
437.17	5290.31
437.39	5378.54
437.60	5415.98
437.81	5456.03
438.03	5491.83
438.24	5498.47
438.45	5599.88
438.67	5566.22
438.88	5652.07
439.09	5730.95
439.31	5716.13
439.52	5768.80
439.73	5748.89
439.94	5772.08
440.16	5828.93
440.37	5840.32
440.58	5928.87
440.80	5956.31
441.01	5947.63
441.22	6100.82
441.44	6068.87
441.65	6081.40
441.86	6098.85
442.08	6134.32
442.29	6157.83
442.50	6196.42
442.71	6200.68
442.93	6275.22
443.14	6263.84
443.35	6346.08
443.57	6267.19
443.78	6377.87
443.99	6401.95
444.20	6365.66
444.42	6439.71
444.63	6432.18
444.84	6502.71
445.06	6510.41
445.27	6477.15
445.48	6480.67
445.69	6509.76
445.91	6498.37
446.12	6484.69
446.33	6544.08
446.54	6622.97
446.76	6558.82
446.97	6584.22
447.18	6564.23
447.39	6630.01
447.61	6634.35
447.82	6643.86
448.03	6605.19
448.25	6653.77
448.46	6695.06
448.67	6718.65
448.88	6623.46
449.10	6698.41
449.31	6692.68
449.52	6636.65
449.73	6635.17
449.95	6724.30
450.16	6681.21
450.37	6774.84
450.58	6846.52
450.79	6663.35
451.01	6722.99
451.22	6681.38
451.43	6722.33
451.64	6756.66
451.86	6743.63
452.07	6745.60
452.28	6738.31
452.49	6854.80
452.71	6712.67
452.92	6704.80
453.13	6776.40
453.34	6775.09
453.55	6822.03
453.77	6815.56
453.98	6832.11
454.19	6748.88
454.40	6796.47
454.62	6846.77
454.83	6777.63
455.04	6878.14
455.25	6774.35
455.46	6992.09
455.68	6852.59
455.89	6831.04
456.10	6853.49
456.31	6915.83
456.52	6918.53
456.74	6902.47
456.95	7004.05
457.16	6943.52
457.37	7018.96
457.58	7012.82
457.80	7027.56
458.01	6985.87
458.22	7240.88
458.43	7082.37
458.64	7144.63
458.86	7067.70
459.07	7138.65
459.28	7136.35
459.49	7247.11
459.70	7375.55
459.91	7289.13
460.13	7277.01
460.34	7327.47
460.55	7345.49
460.76	7470.01
460.97	7479.67
461.19	7434.13
461.40	7643.84
461.61	7532.67
461.82	7577.07
462.03	7642.53
462.24	7639.50
462.46	7678.41
462.67	7691.02
462.88	7803.91
463.09	7802.68
463.30	7928.10
463.51	7890.91
463.72	8057.77
463.94	8117.25
464.15	8108.15
464.36	8085.05
464.57	8302.55
464.78	8316.64
464.99	8356.94
465.20	8353.58
465.42	8502.18
465.63	8538.23
465.84	8540.36
466.05	8699.28
466.26	8750.64
466.47	8855.66
466.68	8826.25
466.90	9014.18
467.11	9003.77
467.32	9113.13
467.53	9300.15
467.74	9179.08
467.95	9319.57
468.16	9488.65
468.37	9598.58
468.59	9605.06
468.80	9789.78
469.01	9721.54
469.22	9947.56
469.43	10179.80
469.64	10065.44
469.85	10266.63
470.06	10320.86
470.28	10516.81
470.49	10413.02
470.70	10600.94
470.91	10887.58
471.12	10788.62
471.33	11052.97
471.54	11051.09
471.75	11153.57
471.96	11509.91
472.17	11494.27
472.39	11807.60
472.60	11617.72
472.81	11970.38
473.02	11944.16
473.23	12197.46
473.44	12315.17
473.65	12309.36
473.86	12521.53
474.07	12628.51
474.28	12727.55
474.49	13116.58
474.71	12984.94
474.92	13274.28
475.13	13267.97
475.34	13365.95
475.55	13486.78
475.76	13623.17
475.97	13980.58
476.18	13962.89
476.39	14218.88
476.60	14356.10
476.81	14480.29
477.02	14605.13
477.23	14657.39
477.44	14715.23
477.65	14968.93
477.87	15190.28
478.08	15278.26
478.29	15300.95
478.50	15698.09
478.71	15579.23
478.92	15806.14
479.13	15830.63
479.34	15990.29
479.55	16116.37
479.76	16073.44
479.97	16194.60
480.18	16620.17
480.39	16345.90
480.60	16723.63
480.81	16766.47
481.02	16873.13
481.23	16856.59
481.44	17157.55
481.65	17247.91
481.86	17502.60
482.07	17116.76
482.28	17869.67
482.49	17551.34
482.71	17559.20
482.92	17751.55
483.13	17942.91
483.34	17835.51
483.55	17928.49
483.76	17944.63
483.97	18183.34
484.18	18127.55
484.39	18236.26
484.60	18068.49
484.81	18449.25
485.02	18263.13
485.23	18537.56
485.44	18527.56
485.65	18676.16
485.86	18505.69
486.07	18721.38
486.28	18701.48
486.49	18827.55
486.70	18911.27
486.91	19009.41
487.12	18873.02
487.33	18816.98
487.54	19142.28
487.75	19154.08
487.96	19146.79
488.17	19059.87
488.38	19192.66
488.59	19229.61
488.80	19253.04
489.01	19236.65
489.22	19454.23
489.43	19302.92
489.64	19137.04
489.85	19549.09
490.06	19252.71
490.26	19444.23
490.47	19328.81
490.68	19526.97
490.89	19668.28
491.10	19386.48
491.31	19643.95
491.52	19813.77
491.73	19689.42
491.94	19638.14
492.15	19805.82
492.36	19793.78
492.57	19783.38
492.78	19735.87
492.99	19746.92
493.20	19873.41
493.41	19920.02
493.62	19941.73
493.83	19914.28
494.04	19985.80
494.25	20100.57
494.46	20123.18
494.67	20076.07
494.88	20241.14
495.08	20212.55
495.29	20237.21
495.50	20449.95
495.71	20324.37
495.92	20543.75
496.13	20558.98
496.34	20401.54
496.55	20530.56
496.76	20808.59
496.97	20487.88
497.18	20784.02
497.39	20732.49
497.60	21031.16
497.81	20749.94
498.02	20997.74
498.22	20844.23
498.43	21164.77
498.64	21253.41
498.85	21221.79
499.06	21294.29
499.27	21616.88
499.48	21164.69
499.69	21477.05
499.90	21614.02
500.11	21834.87
500.32	22023.45
500.52	21790.22
500.73	22222.35
500.94	22287.96
501.15	22281.16
501.36	22350.30
501.57	22251.59
501.78	22499.48
501.99	22726.15
502.20	22738.68
502.41	22800.12
502.61	22850.74
502.82	23161.05
503.03	23001.15
503.24	23452.11
503.45	23262.55
503.66	23650.68
503.87	23617.09
504.08	23872.35
504.28	23816.98
504.49	23975.41
504.70	24235.91
504.91	24386.88
505.12	24239.68
505.33	24737.82
505.54	24764.28
505.75	24909.12
505.95	25176.09
506.16	25178.22
506.37	25133.74
506.58	25676.61
506.79	25430.37
507.00	25950.06
507.21	25812.52
507.41	25955.63
507.62	26122.74
507.83	26666.76
508.04	26459.02
508.25	26803.41
508.46	26763.18
508.67	27239.79
508.87	27133.46
509.08	27663.47
509.29	27636.44
509.50	27897.18
509.71	28159.73
509.92	28369.86
510.12	28366.25
510.33	28653.70
510.54	28688.11
510.75	29020.62
510.96	29342.31
511.17	29601.50
511.37	29646.72
511.58	29947.45
511.79	29871.92
512.00	30062.05
512.21	30576.01
512.42	30701.35
512.62	30884.27
512.83	31288.78
513.04	31230.13
513.25	31742.12
513.46	31257.16
513.66	32242.24
513.87	32015.16
514.08	32513.31
514.29	32520.76
514.50	32622.59
514.71	33077.48
514.91	33055.03
515.12	33217.15
515.33	33696.62
515.54	33737.75
515.75	34228.77
515.95	34116.78
516.16	34223.61
516.37	34828.00
516.58	35047.46
516.78	34930.73
516.99	35404.22
517.20	35459.76
517.41	35611.47
517.62	35901.30
517.82	35892.54
518.03	36618.66
518.24	37004.42
518.45	36531.09
518.66	37038.25
518.86	36943.55
519.07	37456.61
519.28	37002.78
519.49	37785.51
519.69	37906.10
519.90	38029.80
520.11	38229.35
520.32	38252.53
520.52	38784.35
520.73	38429.31
520.94	39069.10
521.15	39169.37
521.36	38768.38
521.56	39674.07
521.77	39055.17
521.98	39706.18
522.19	39335.42
522.39	39779.66
522.60	39603.87
522.81	39879.52
523.02	39695.94
523.22	40143.46
523.43	40393.23
523.64	40258.31
523.84	40427.64
524.05	40812.09
524.26	40743.68
524.47	40585.42
524.67	40656.11
524.88	40766.95
525.09	41114.94
525.30	40824.95
525.50	40828.63
525.71	40928.25
525.92	41070.87
526.13	41308.76
526.33	41169.41
526.54	40913.34
526.75	41221.84
526.95	41540.67
527.16	40774.32
527.37	41335.87
527.58	41462.52
527.78	41274.52
527.99	41524.37
528.20	41646.26
528.40	41261.74
528.61	41177.69
528.82	41536.16
529.03	41375.03
529.23	41168.60
529.44	41392.73
529.65	41277.71
529.85	41344.64
530.06	41115.59
530.27	41228.64
530.47	40641.20
530.68	41409.85
530.89	40612.04
531.09	41130.50
531.30	40836.09
531.51	40477.69
531.72	40962.57
531.92	40802.91
532.13	40888.11
532.34	40619.08
532.54	40606.88
532.75	40671.10
532.96	40411.34
533.16	40594.84
533.37	40669.87
533.58	40271.67
533.78	40428.62
533.99	40380.13
534.20	39922.94
534.40	40102.42
534.61	40197.78
534.82	40182.54
535.02	40132.57
535.23	40037.13
535.44	40154.85
535.64	39888.29
535.85	39933.92
536.06	39761.07
536.26	39658.01
536.47	39656.78
536.68	39970.12
536.88	39278.65
537.09	39684.47
537.29	39152.82
537.50	39744.36
537.71	39291.26
537.91	39400.38
538.12	39454.61
538.33	39062.71
538.53	39201.97
538.74	39181.66
538.95	39140.61
539.15	38855.54
539.36	39040.92
539.56	39228.76
539.77	38819.74
539.98	38769.03
540.18	38881.59
540.39	38554.08
540.60	38760.59
540.80	38902.15
541.01	38728.65
541.21	38668.44
541.42	38799.91
541.63	38487.72
541.83	38718.65
542.04	38624.44
542.25	38549.16
542.45	38673.51
542.66	38563.33
542.86	38758.22
543.07	37815.66
543.28	38704.32
543.48	38464.54
543.69	38548.10
543.89	38429.40
544.10	38785.42
544.31	38585.12
544.51	38310.70
544.72	38484.61
544.92	38354.77
545.13	38709.15
545.33	38599.38
545.54	38328.72
545.75	38609.37
545.95	38364.52
546.16	38380.49
546.36	38850.54
546.57	38047.16
546.78	37537.14
546.98	38120.15
547.19	37413.60
547.39	38290.46
547.60	38559.32
547.80	38960.97
548.01	38913.78
548.22	38569.07
548.42	38660.41
548.63	39010.94
548.83	38762.15
549.04	39163.47
549.24	38874.05
549.45	39121.12
549.65	39444.53
549.86	38875.94
550.07	39145.53
550.27	39550.54
550.48	39635.32
550.68	39537.27
550.89	39523.01
551.09	39693.73
551.30	39577.82
551.50	39850.20
551.71	39630.33
551.91	39645.56
552.12	39881.08
552.33	40171.40
552.53	39880.59
552.74	40461.88
552.94	40479.25
553.15	40334.99
553.35	40537.08
553.56	40245.13
553.76	40805.29
553.97	40559.78
554.17	40821.01
554.38	41458.67
554.58	40941.84
554.79	41564.59
554.99	41056.04
555.20	41265.26
555.40	41787.74
555.61	41611.53
555.81	41505.36
556.02	42296.94
556.22	42239.93
556.43	42147.28
556.63	42253.94
556.84	42262.46
557.04	42874.39
557.25	42431.95
557.45	42949.67
557.66	43049.86
557.86	42989.98
558.07	43616.66
558.27	43300.69
558.48	43496.97
558.68	43693.99
558.89	43908.12
559.09	44084.41
559.30	43871.67
559.50	44290.93
559.71	44060.98
559.91	44862.80
560.12	44700.69
560.32	44812.26
560.53	45274.69
560.73	45077.18
560.94	45620.88
561.14	45311.47
561.35	45976.00
561.55	45843.21
561.76	46115.75
561.96	45735.32
562.17	46473.16
562.37	46846.22
562.57	46615.37
562.78	46740.71
562.98	47185.12
563.19	47280.06
563.39	47614.37
563.60	47889.62
563.80	47607.33
564.01	48387.52
564.21	48330.92
564.42	48336.40
564.62	48587.32
564.82	49041.56
565.03	48653.68
565.23	48889.77
565.44	49210.80
565.64	49237.51
565.85	49805.78
566.05	49770.23
566.25	50319.41
566.46	50117.24
566.66	50524.21
566.87	50633.57
567.07	50788.07
567.28	51075.69
567.48	51558.60
567.68	50927.08
567.89	52137.11
568.09	51742.67
568.30	52023.24
568.50	52485.34
568.71	52457.57
568.91	52881.67
569.11	52548.50
569.32	52873.56
569.52	53189.43
569.73	52822.36
569.93	53565.85
570.13	53420.45
570.34	53473.45
570.54	54200.64
570.75	54032.54
570.95	54252.82
571.15	54210.06
571.36	55025.23
571.56	54623.34
571.77	54727.30
571.97	54483.18
572.17	55436.47
572.38	55387.15
572.58	55699.75
572.79	55723.35
572.99	55864.74
573.19	55948.29
573.40	56018.09
573.60	56218.13
573.81	56260.81
574.01	56626.09
574.21	56657.71
574.42	56765.68
574.62	56557.69
574.82	57084.59
575.03	56986.21
575.23	57610.67
575.43	57286.93
575.64	57352.22
575.84	57867.73
576.05	57383.84
576.25	57821.37
576.45	57724.46
576.66	58423.47
576.86	57961.37
577.06	58520.05
577.27	58270.94
577.47	58504.24
577.67	58491.79
577.88	58019.77
578.08	58884.51
578.28	58946.85
578.49	58789.97
578.69	58996.74
578.89	58696.34
579.10	58924.24
579.30	59503.73
579.50	58933.17
579.71	58597.46
579.91	59104.21
580.11	58891.39
580.32	59063.91
580.52	59017.46
580.72	59656.26
580.93	58930.63
581.13	59003.54
581.33	59569.27
581.54	59123.38
581.74	59153.20
581.94	59315.32
582.15	59592.04
582.35	59218.41
582.55	59242.33
582.76	58873.12
582.96	59619.97
583.16	59101.27
583.37	59402.73
583.57	58920.14
583.77	59463.76
583.97	58423.88
584.18	59555.67
584.38	59291.73
584.58	58919.24
584.79	59285.09
584.99	59208.17
585.19	59062.19
585.40	58867.88
585.60	59073.25
585.80	58445.59
586.00	58734.51
586.21	58542.83
586.41	58547.99
586.61	58730.91
586.82	58544.71
587.02	58315.58
587.22	58673.65
587.42	57919.01
587.63	58446.73
587.83	57648.27
588.03	58026.41
588.23	57573.23
588.44	57835.87
588.64	57458.14
588.84	57709.79
589.05	57762.96
589.25	57709.88
589.45	57564.14
589.65	57257.52
589.86	57421.85
590.06	57264.73
590.26	56943.61
590.46	57193.38
590.67	56512.06
590.87	56993.82
591.07	56994.48
591.27	56198.15
591.48	56518.45
591.68	55874.08
591.88	56838.01
592.08	55879.32
592.29	56155.88
592.49	55947.15
592.69	55996.30
592.89	55632.50
593.10	55671.57
593.30	55342.91
593.50	55790.76
593.70	54682.16
593.90	55368.72
594.11	55008.28
594.31	54917.02
594.51	55091.26
594.71	54985.83
594.92	54920.87
595.12	54529.05
595.32	54476.71
595.52	54508.74
595.72	53750.99
595.93	54360.87
596.13	53950.30
596.33	53600.83
596.53	54018.37
596.73	53669.07
596.94	53533.00
597.14	53643.18
597.34	53208.60
597.54	53556.51
597.74	52969.65
597.95	53012.74
598.15	52988.82
598.35	52947.61
598.55	52933.60
598.75	52474.94
598.96	53004.63
599.16	52443.40
599.36	52427.59
599.56	52195.43
599.76	51987.20
599.97	52234.10
600.17	51941.57
600.37	52054.12
600.57	51247.96
600.77	52147.26
600.97	51621.67
601.18	52075.50
601.38	51508.22
601.58	51704.33
601.78	51309.40
601.98	51020.39
602.18	51271.47
602.39	51416.06
602.59	51079.13
602.79	50918.16
602.99	51013.59
603.19	50970.91
603.39	50696.73
603.60	50597.44
603.80	50637.42
604.00	50416.24
604.20	50480.38
604.40	50608.91
604.60	50280.99
604.80	50269.20
605.01	50343.50
605.21	50124.20
605.41	50057.84
605.61	49680.45
605.81	50001.65
606.01	50157.29
606.21	49510.55
606.42	49866.15
606.62	49507.27
606.82	49890.48
607.02	49600.57
607.22	49710.18
607.42	49812.25
607.62	49282.57
607.82	49528.16
608.03	49378.16
