SpectraSuite Data File
++++++++++++++++++++++++++++++++++++
Date: Tue Sep 20 12:04:42 EDT 2022
User: Laboratoire
Dark Spectrum Present: No
Reference Spectrum Present: No
Number of Sampled Component Spectra: 1
Spectrometers: FLMT00174
Integration Time (usec): 15000 (FLMT00174)
Spectra Averaged: 25 (FLMT00174)
Boxcar Smoothing: 0 (FLMT00174)
Correct for Electrical Dark: No (FLMT00174)
Strobe/Lamp Enabled: No (FLMT00174)
Correct for Detector Non-linearity: No (FLMT00174)
Correct for Stray Light: No (FLMT00174)
Number of Pixels in Processed Spectrum: 3648
>>>>>Begin Processed Spectral Data<<<<<
345.74	3164.11
345.96	3164.11
346.18	3164.11
346.39	3173.37
346.61	3234.97
346.83	3229.73
347.05	3207.69
347.27	3216.38
347.49	3218.26
347.71	3222.52
347.93	3217.11
348.15	3223.91
348.36	3215.31
348.58	3221.54
348.80	3214.41
349.02	3217.69
349.24	3227.76
349.46	3300.18
349.68	3328.36
349.90	3337.04
350.11	3314.92
350.33	3325.74
350.55	3306.73
350.77	3330.57
350.99	3318.45
351.21	3327.95
351.43	3320.33
351.65	3338.60
351.86	3309.11
352.08	3330.90
352.30	3313.45
352.52	3321.23
352.74	3325.82
352.96	3307.80
353.18	3323.77
353.39	3320.17
353.61	3317.05
353.83	3344.66
354.05	3343.60
354.27	3333.52
354.49	3338.11
354.70	3325.57
354.92	3316.56
355.14	3320.00
355.36	3313.29
355.58	3317.46
355.80	3330.90
356.02	3334.67
356.23	3328.11
356.45	3321.97
356.67	3330.49
356.89	3336.80
357.11	3325.66
357.33	3337.70
357.54	3325.41
357.76	3319.10
357.98	3317.63
358.20	3329.92
358.42	3322.71
358.63	3328.77
358.85	3331.80
359.07	3338.76
359.29	3307.06
359.51	3305.91
359.73	3315.17
359.94	3318.94
360.16	3308.70
360.38	3321.23
360.60	3301.74
360.82	3336.63
361.03	3333.11
361.25	3340.73
361.47	3337.29
361.69	3336.22
361.91	3342.53
362.12	3315.74
362.34	3347.45
362.56	3361.62
362.78	3326.47
363.00	3344.99
363.21	3312.30
363.43	3347.53
363.65	3323.03
363.87	3320.66
364.09	3336.14
364.30	3324.43
364.52	3318.86
364.74	3336.63
364.96	3324.43
365.17	3351.79
365.39	3327.05
365.61	3324.67
365.83	3341.06
366.05	3346.54
366.26	3322.30
366.48	3337.53
366.70	3361.62
366.92	3327.62
367.13	3332.54
367.35	3340.89
367.57	3313.70
367.79	3333.93
368.01	3349.17
368.22	3346.14
368.44	3327.21
368.66	3340.48
368.88	3320.90
369.09	3328.28
369.31	3359.32
369.53	3345.56
369.75	3316.73
369.96	3347.86
370.18	3344.01
370.40	3354.00
370.62	3345.97
370.83	3320.49
371.05	3342.86
371.27	3342.86
371.49	3315.25
371.70	3335.49
371.92	3337.29
372.14	3357.77
372.36	3347.53
372.57	3359.41
372.79	3355.47
373.01	3345.89
373.22	3327.87
373.44	3341.47
373.66	3355.23
373.88	3346.63
374.09	3330.00
374.31	3336.47
374.53	3331.55
374.75	3368.99
374.96	3347.12
375.18	3380.87
375.40	3337.45
375.61	3358.26
375.83	3349.33
376.05	3369.32
376.27	3373.41
376.48	3342.61
376.70	3363.75
376.92	3352.03
377.13	3348.10
377.35	3353.75
377.57	3353.10
377.79	3349.00
378.00	3347.45
378.22	3357.44
378.44	3343.60
378.65	3389.22
378.87	3361.45
379.09	3358.91
379.30	3361.95
379.52	3383.57
379.74	3350.80
379.96	3370.47
380.17	3352.52
380.39	3364.40
380.61	3383.98
380.82	3360.55
381.04	3357.60
381.26	3377.51
381.47	3375.87
381.69	3373.33
381.91	3371.04
382.12	3352.44
382.34	3373.66
382.56	3378.90
382.77	3379.23
382.99	3383.49
383.21	3358.34
383.42	3388.65
383.64	3393.81
383.86	3388.08
384.07	3397.09
384.29	3387.67
384.51	3377.26
384.72	3382.75
384.94	3391.19
385.16	3390.62
385.37	3382.51
385.59	3382.75
385.81	3402.33
386.02	3425.43
386.24	3420.35
386.46	3387.50
386.67	3412.16
386.89	3431.25
387.11	3440.92
387.32	3426.99
387.54	3400.37
387.76	3437.15
387.97	3435.75
388.19	3441.82
388.40	3434.36
388.62	3434.44
388.84	3455.91
389.05	3452.96
389.27	3442.39
389.49	3462.46
389.70	3445.09
389.92	3449.19
390.14	3458.04
390.35	3472.62
390.57	3478.02
390.78	3473.19
391.00	3479.83
391.22	3491.62
391.43	3476.14
391.65	3488.51
391.86	3496.29
392.08	3503.58
392.30	3496.05
392.51	3497.77
392.73	3519.80
392.95	3527.75
393.16	3495.96
393.38	3516.28
393.59	3504.81
393.81	3524.55
394.03	3523.24
394.24	3514.48
394.46	3524.64
394.67	3512.10
394.89	3525.46
395.11	3530.21
395.32	3551.01
395.54	3548.31
395.75	3530.53
395.97	3529.06
396.19	3523.82
396.40	3535.12
396.62	3523.57
396.83	3527.67
397.05	3536.76
397.26	3566.91
397.48	3524.14
397.70	3524.39
397.91	3560.35
398.13	3544.71
398.34	3549.38
398.56	3574.85
398.78	3545.53
398.99	3584.27
399.21	3557.16
399.42	3580.18
399.64	3541.02
399.85	3575.10
400.07	3565.68
400.29	3596.64
400.50	3580.34
400.72	3592.79
400.93	3590.91
401.15	3587.39
401.36	3608.77
401.58	3614.01
401.79	3595.09
402.01	3606.47
402.23	3608.77
402.44	3642.52
402.66	3646.37
402.87	3634.98
403.09	3647.76
403.30	3651.04
403.52	3644.57
403.73	3635.88
403.95	3647.35
404.16	3662.18
404.38	3681.43
404.60	3664.96
404.81	3701.99
405.03	3693.96
405.24	3705.19
405.46	3724.60
405.67	3742.54
405.89	3739.10
406.10	3729.84
406.32	3764.82
406.53	3773.18
406.75	3807.75
406.96	3785.96
407.18	3789.97
407.39	3799.97
407.61	3836.58
407.82	3825.93
408.04	3866.97
408.25	3835.19
408.47	3878.12
408.68	3912.52
408.90	3889.09
409.12	3915.06
409.33	3930.05
409.55	3919.65
409.76	3926.94
409.98	3931.36
410.19	3978.63
410.41	3993.95
410.62	4001.24
410.84	3976.34
411.05	4010.41
411.27	4032.70
411.48	4040.64
411.70	4061.37
411.91	4078.65
412.12	4069.31
412.34	4082.01
412.55	4108.80
412.77	4111.83
412.98	4132.39
413.20	4119.12
413.41	4137.88
413.63	4147.22
413.84	4146.81
414.06	4179.49
414.27	4160.24
414.49	4185.80
414.70	4168.19
414.92	4173.60
415.13	4198.34
415.35	4222.01
415.56	4194.24
415.78	4199.07
415.99	4221.27
416.21	4225.94
416.42	4232.09
416.63	4234.30
416.85	4232.91
417.06	4218.82
417.28	4207.84
417.49	4263.95
417.71	4228.73
417.92	4236.35
418.14	4233.56
418.35	4224.14
418.57	4255.68
418.78	4249.94
418.99	4244.62
419.21	4265.67
419.42	4268.46
419.64	4233.64
419.85	4246.91
420.07	4291.31
420.28	4263.38
420.50	4264.77
420.71	4291.97
420.92	4257.89
421.14	4290.49
421.35	4269.52
421.57	4273.62
421.78	4276.65
422.00	4309.17
422.21	4312.45
422.42	4307.21
422.64	4280.91
422.85	4351.11
423.07	4342.19
423.28	4317.28
423.50	4334.48
423.71	4361.52
423.92	4365.12
424.14	4366.76
424.35	4381.18
424.57	4408.79
424.78	4397.48
424.99	4404.69
425.21	4420.50
425.42	4443.93
425.64	4414.36
425.85	4475.22
426.06	4449.66
426.28	4477.52
426.49	4506.92
426.71	4506.84
426.92	4507.66
427.13	4547.72
427.35	4589.50
427.56	4587.78
427.78	4572.79
427.99	4628.25
428.20	4664.70
428.42	4696.40
428.63	4689.19
428.84	4649.71
429.06	4705.09
429.27	4741.38
429.49	4737.61
429.70	4807.89
429.91	4792.98
430.13	4823.95
430.34	4856.14
430.56	4891.86
430.77	4943.47
430.98	4911.11
431.20	4963.87
431.41	4993.60
431.62	5014.25
431.84	4992.95
432.05	5086.91
432.26	5102.72
432.48	5099.11
432.69	5172.76
432.91	5184.72
433.12	5215.85
433.33	5256.23
433.55	5345.12
433.76	5367.15
433.97	5370.18
434.19	5403.28
434.40	5467.18
434.61	5481.18
434.83	5515.43
435.04	5523.54
435.25	5578.26
435.47	5640.19
435.68	5612.50
435.89	5721.62
436.11	5728.41
436.32	5774.37
436.53	5777.16
436.75	5816.31
436.96	5850.96
437.17	5855.39
437.39	5888.81
437.60	5940.50
437.81	5976.05
438.03	6018.32
438.24	6056.58
438.45	6127.77
438.67	6090.74
438.88	6179.95
439.09	6246.88
439.31	6235.90
439.52	6292.10
439.73	6278.74
439.94	6233.93
440.16	6309.46
440.37	6301.85
440.58	6389.33
440.80	6382.37
441.01	6367.05
441.22	6540.56
441.44	6490.34
441.65	6451.67
441.86	6493.95
442.08	6526.38
442.29	6473.47
442.50	6554.89
442.71	6557.35
442.93	6600.28
443.14	6524.66
443.35	6629.68
443.57	6515.33
443.78	6619.36
443.99	6632.80
444.20	6535.07
444.42	6608.63
444.63	6604.62
444.84	6643.94
445.06	6686.54
445.27	6586.35
445.48	6596.10
445.69	6618.71
445.91	6628.21
446.12	6582.01
446.33	6633.21
446.54	6694.65
446.76	6599.37
446.97	6652.13
447.18	6592.66
447.39	6662.62
447.61	6639.35
447.82	6670.73
448.03	6622.23
448.25	6662.21
448.46	6664.42
448.67	6726.68
448.88	6663.19
449.10	6718.40
449.31	6681.62
449.52	6657.62
449.73	6687.11
449.95	6759.20
450.16	6673.76
450.37	6767.47
450.58	6848.16
450.79	6681.46
451.01	6745.27
451.22	6703.98
451.43	6745.35
451.64	6770.50
451.86	6753.63
452.07	6807.45
452.28	6807.45
452.49	6912.55
452.71	6786.23
452.92	6815.56
453.13	6877.00
453.34	6861.10
453.55	6952.77
453.77	6983.82
453.98	6960.14
454.19	6909.52
454.40	6979.15
454.62	7019.37
454.83	6965.14
455.04	7124.88
455.25	6985.38
455.46	7204.10
455.68	7137.83
455.89	7122.02
456.10	7148.23
456.31	7178.70
456.52	7203.12
456.74	7216.06
456.95	7343.28
457.16	7330.58
457.37	7427.33
457.58	7372.77
457.80	7405.78
458.01	7404.31
458.22	7681.28
458.43	7568.64
458.64	7623.93
458.86	7561.59
459.07	7677.83
459.28	7683.24
459.49	7779.09
459.70	7985.36
459.91	7939.81
460.13	7937.19
460.34	8014.77
460.55	7987.41
460.76	8144.85
460.97	8181.80
461.19	8204.33
461.40	8441.56
461.61	8340.56
461.82	8428.13
462.03	8477.20
462.24	8545.60
462.46	8569.36
462.67	8632.02
462.88	8807.90
463.09	8769.07
463.30	8925.13
463.51	8915.79
463.72	9126.81
463.94	9193.91
464.15	9170.23
464.36	9171.30
464.57	9471.94
464.78	9481.77
464.99	9611.28
465.20	9577.20
465.42	9811.49
465.63	9817.06
465.84	9875.31
466.05	10079.28
466.26	10164.64
466.47	10292.60
466.68	10248.12
466.90	10464.22
467.11	10460.04
467.32	10670.74
467.53	10835.56
467.74	10712.35
467.95	10863.74
468.16	11109.90
468.37	11248.51
468.59	11284.06
468.80	11540.88
469.01	11415.46
469.22	11695.21
469.43	11956.78
469.64	11833.74
469.85	12097.84
470.06	12181.07
470.28	12357.61
470.49	12197.46
470.70	12424.53
470.91	12767.94
471.12	12634.00
471.33	12989.61
471.54	12898.19
471.75	13037.21
471.96	13401.99
472.17	13358.74
472.39	13726.80
472.60	13488.41
472.81	13904.32
473.02	13788.32
473.23	14104.20
473.44	14144.50
473.65	14132.30
473.86	14317.51
474.07	14415.16
474.28	14513.22
474.49	14886.85
474.71	14804.52
474.92	15025.29
475.13	14946.40
475.34	15035.70
475.55	15107.70
475.76	15220.91
475.97	15575.54
476.18	15558.34
476.39	15764.44
476.60	15914.52
476.81	15945.48
477.02	16058.70
477.23	16065.99
477.44	16056.73
477.65	16254.40
477.87	16448.55
478.08	16453.87
478.29	16506.05
478.50	16832.01
478.71	16675.38
478.92	16800.88
479.13	16813.33
479.34	16903.85
479.55	16996.42
479.76	16967.75
479.97	17058.60
480.18	17469.34
480.39	17087.68
480.60	17447.87
480.81	17431.90
481.02	17436.65
481.23	17451.64
481.44	17705.92
481.65	17816.18
481.86	17952.41
482.07	17559.28
482.28	18228.15
482.49	17913.83
482.71	17972.65
482.92	18095.03
483.13	18244.04
483.34	18102.41
483.55	18176.71
483.76	18171.87
483.97	18375.28
484.18	18234.54
484.39	18433.77
484.60	18258.46
484.81	18628.24
485.02	18464.49
485.23	18712.54
485.44	18724.41
485.65	18836.07
485.86	18649.29
486.07	18870.39
486.28	18744.57
486.49	18987.54
486.70	19032.67
486.91	19224.12
487.12	19016.70
487.33	19015.64
487.54	19292.93
487.75	19270.48
487.96	19312.67
488.17	19253.77
488.38	19381.24
488.59	19413.51
488.80	19494.70
489.01	19465.29
489.22	19766.34
489.43	19732.42
489.64	19532.30
489.85	19955.98
490.06	19611.02
490.26	19962.94
490.47	19772.73
490.68	20106.79
490.89	20206.65
491.10	20040.85
491.31	20286.77
491.52	20464.61
491.73	20389.74
491.94	20314.54
492.15	20493.29
492.36	20611.74
492.57	20654.50
492.78	20699.39
492.99	20858.15
493.20	21007.16
493.41	21007.98
493.62	21027.72
493.83	21062.38
494.04	21191.23
494.25	21362.28
494.46	21396.93
494.67	21388.82
494.88	21591.24
495.08	21629.25
495.29	21764.83
495.50	21999.03
495.71	21912.20
495.92	22197.28
496.13	22229.88
496.34	22179.26
496.55	22351.78
496.76	22723.44
496.97	22400.19
497.18	22809.46
497.39	22804.21
497.60	23187.27
497.81	22928.32
498.02	23274.18
498.22	23106.66
498.43	23605.71
498.64	23728.18
498.85	23711.71
499.06	23821.48
499.27	24235.99
499.48	23833.69
499.69	24266.96
499.90	24398.52
500.11	24669.67
500.32	24966.38
500.52	24843.25
500.73	25405.13
500.94	25439.21
501.15	25516.54
501.36	25663.42
501.57	25563.32
501.78	25958.00
501.99	26301.33
502.20	26308.04
502.41	26481.46
502.61	26515.71
502.82	26931.44
503.03	26881.39
503.24	27392.81
503.45	27262.40
503.66	27731.30
503.87	27774.63
504.08	28189.14
504.28	28052.91
504.49	28365.51
504.70	28561.87
504.91	28856.86
505.12	28791.90
505.33	29387.53
505.54	29471.91
505.75	29688.42
505.95	30041.16
506.16	30033.46
506.37	30097.36
506.58	30668.50
506.79	30445.51
507.00	31014.11
507.21	30940.96
507.41	31124.21
507.62	31484.16
507.83	32033.43
508.04	31785.79
508.25	32464.15
508.46	32313.59
508.67	32979.75
508.87	32755.38
509.08	33367.72
509.29	33348.14
509.50	33730.70
509.71	34004.56
509.92	34254.73
510.12	34223.85
510.33	34526.30
510.54	34589.45
510.75	34980.37
510.96	35269.13
511.17	35654.81
511.37	35783.09
511.58	36045.48
511.79	35996.25
512.00	36089.71
512.21	36712.87
512.42	36736.79
512.62	37080.52
512.83	37398.61
513.04	37318.91
513.25	37856.87
513.46	37277.54
513.66	38390.24
513.87	38213.87
514.08	38653.20
514.29	38404.66
514.50	38660.49
514.71	39163.88
514.91	38985.38
515.12	39055.09
515.33	39581.09
515.54	39428.64
515.75	40069.66
515.95	39861.91
516.16	39981.84
516.37	40613.68
516.58	40652.75
516.78	40378.00
516.99	40760.31
517.20	40834.78
517.41	40850.34
517.62	41194.32
517.82	41078.24
518.03	41672.23
518.24	42111.97
518.45	41414.52
518.66	41908.73
518.86	41592.93
519.07	42199.46
519.28	41512.00
519.49	42323.24
519.69	42362.23
519.90	42427.11
520.11	42500.02
520.32	42304.73
520.52	42693.59
520.73	42343.06
520.94	42799.84
521.15	42782.72
521.36	42303.33
521.56	43115.31
521.77	42389.35
521.98	43063.87
522.19	42451.28
522.39	42761.59
522.60	42489.37
522.81	42617.41
523.02	42346.34
523.22	42754.79
523.43	42802.22
523.64	42500.43
523.84	42618.64
524.05	42941.24
524.26	42811.31
524.47	42507.72
524.67	42592.34
524.88	42644.28
525.09	42953.52
525.30	42508.46
525.50	42406.39
525.71	42403.77
525.92	42394.67
526.13	42456.77
526.33	42169.97
526.54	41908.16
526.75	42159.16
526.95	42446.36
527.16	41565.33
527.37	42045.29
527.58	42199.05
527.78	41949.61
527.99	42077.57
528.20	42071.91
528.40	41593.92
528.61	41396.08
528.82	41807.15
529.03	41524.45
529.23	41308.43
529.44	41562.71
529.65	41451.54
529.85	41386.34
530.06	41225.61
530.27	41037.28
530.47	40586.56
530.68	41461.46
530.89	40471.96
531.09	41047.11
531.30	40840.51
531.51	40421.99
531.72	40873.28
531.92	40746.06
532.13	40875.08
532.34	40515.29
532.54	40367.10
532.75	40433.46
532.96	40220.47
533.16	40370.46
533.37	40375.29
533.58	39942.27
533.78	40350.06
533.99	40243.08
534.20	39732.89
534.40	40016.57
534.61	40011.98
534.82	39982.49
535.02	39969.06
535.23	39904.02
535.44	39949.56
535.64	39770.24
535.85	39847.74
536.06	39760.41
536.26	39699.46
536.47	39687.26
536.68	40036.89
536.88	39374.90
537.09	39954.56
537.29	39340.41
537.50	40011.82
537.71	39453.63
537.91	39622.79
538.12	39690.29
538.33	39420.53
538.53	39491.23
538.74	39577.08
538.95	39523.59
539.15	39277.66
539.36	39541.12
539.56	39714.87
539.77	39258.74
539.98	39296.10
540.18	39553.40
540.39	39372.69
540.60	39583.06
540.80	39857.73
541.01	39703.31
541.21	39647.61
541.42	39849.70
541.63	39624.02
541.83	39857.24
542.04	39923.02
542.25	39763.12
542.45	39944.98
542.66	39913.03
542.86	40087.27
543.07	39222.70
543.28	40236.03
543.48	39998.47
543.69	40182.21
543.89	40025.91
544.10	40505.14
544.31	40410.93
544.51	40231.20
544.72	40403.39
544.92	40284.28
545.13	40677.33
545.33	40588.86
545.54	40458.69
545.75	40744.09
545.95	40541.26
546.16	40738.03
546.36	41309.25
546.57	40540.20
546.78	39962.42
546.98	40598.52
547.19	40040.08
547.39	40989.77
547.60	41149.18
547.80	41754.89
548.01	41858.84
548.22	41539.61
548.42	41724.25
548.63	42091.74
548.83	41914.55
549.04	42243.21
549.24	41942.56
549.45	42238.62
549.65	42586.94
549.86	42097.88
550.07	42408.44
550.27	42825.40
550.48	42928.13
550.68	42905.27
550.89	43039.87
551.09	43308.40
551.30	43340.10
551.50	43650.24
551.71	43631.32
551.91	43699.31
552.12	43933.19
552.33	44296.01
552.53	43963.09
552.74	44720.92
552.94	44837.24
553.15	44688.07
553.35	45070.14
553.56	44710.68
553.76	45443.03
553.97	45168.20
554.17	45529.13
554.38	46294.74
554.58	45770.38
554.79	46510.76
554.99	46092.98
555.20	46335.62
555.40	46799.85
555.61	46658.79
555.81	46592.93
556.02	47555.55
556.22	47298.90
556.43	47352.72
556.63	47621.34
556.84	47629.36
557.04	48394.48
557.25	47888.23
557.45	48503.52
557.66	48561.93
557.86	48608.87
558.07	49257.01
558.27	49025.26
558.48	49306.49
558.68	49460.49
558.89	49720.99
559.09	50001.81
559.30	49876.15
559.50	50360.78
559.71	50039.58
559.91	51008.59
560.12	50795.11
560.32	51009.41
560.53	51431.95
560.73	51253.78
560.94	52037.66
561.14	51721.45
561.35	52443.24
561.55	52261.30
561.76	52519.75
561.96	52115.15
562.17	52817.28
562.37	53190.91
562.57	53070.57
562.78	53225.07
562.98	53734.44
563.19	53863.05
563.39	54150.51
563.60	54336.38
563.80	53903.36
564.01	54834.61
564.21	54734.09
564.42	54773.83
564.62	55166.71
564.82	55692.05
565.03	55277.30
565.23	55478.24
565.44	55846.14
565.64	55758.16
565.85	56283.10
566.05	56121.22
566.25	56518.94
566.46	56330.36
566.66	56791.57
566.87	56919.69
567.07	57084.34
567.28	57226.64
567.48	57759.52
567.68	57086.56
567.89	58352.45
568.09	57808.92
568.30	57892.64
568.50	58445.01
568.71	58321.97
568.91	58604.35
569.11	58199.01
569.32	58411.51
569.52	58697.41
569.73	58183.37
569.93	59113.47
570.13	58972.33
570.34	58924.89
570.54	59458.43
570.75	59388.72
570.95	59302.21
571.15	59156.89
571.36	59794.63
571.56	59175.81
571.77	59374.96
571.97	59012.79
572.17	59950.68
572.38	59808.31
572.58	60168.42
572.79	59928.48
572.99	60026.62
573.19	59911.69
573.40	59941.26
573.60	60130.25
573.81	60040.79
574.01	60363.31
574.21	60281.63
574.42	60299.98
574.62	60099.53
574.82	60652.97
575.03	60334.39
575.23	60978.27
575.43	60524.69
575.64	60409.43
575.84	60835.24
576.05	60258.86
576.25	60415.41
576.45	60185.54
576.66	60862.11
576.86	60219.62
577.06	60502.81
577.27	60334.22
577.47	60480.53
577.67	60282.37
577.88	59776.93
578.08	60440.88
578.28	60518.46
578.49	60182.76
578.69	60335.13
578.89	59889.98
579.10	60004.50
579.30	60658.13
579.50	60035.96
579.71	59528.47
579.91	60004.67
580.11	59595.07
580.32	59419.60
580.52	59399.70
580.72	59929.22
580.93	59120.68
581.13	59137.96
581.33	59706.81
581.54	59163.77
581.74	59158.12
581.94	59179.01
582.15	59471.13
582.35	58830.20
582.55	58888.28
582.76	58310.26
582.96	58871.89
583.16	58208.27
583.37	58326.64
583.57	57922.95
583.77	58399.30
583.97	57271.04
584.18	58394.06
584.38	57948.75
584.58	57487.14
584.79	57881.41
584.99	57623.21
585.19	57309.29
585.40	57008.16
585.60	57310.77
585.80	56755.69
586.00	56988.91
586.21	56852.10
586.41	56784.52
586.61	56825.23
586.82	56537.95
587.02	56257.13
587.22	56532.87
587.42	55682.55
587.63	56272.04
587.83	55340.38
588.03	55736.53
588.23	55230.60
588.44	55485.70
588.64	55053.91
588.84	55267.14
589.05	55464.40
589.25	55189.64
589.45	54989.93
589.65	54709.85
589.86	54859.35
590.06	54737.78
590.26	54271.99
590.46	54558.46
590.67	53762.05
590.87	54284.44
591.07	54341.95
591.27	53649.49
591.48	54017.55
591.68	53263.82
591.88	54116.51
592.08	53184.60
592.29	53525.79
592.49	53236.46
592.69	53406.85
592.89	52958.67
593.10	52986.77
593.30	52693.91
593.50	53132.99
593.70	51885.12
593.90	52558.74
594.11	52325.68
594.31	52222.38
594.51	52233.20
594.71	52244.58
594.92	52179.70
595.12	51922.32
595.32	51897.49
595.52	52012.75
595.72	51173.33
595.93	51887.34
596.13	51381.00
596.33	51105.26
596.53	51474.96
596.73	51334.06
596.94	51059.55
597.14	51332.34
597.34	50859.17
597.54	51173.82
597.74	50492.51
597.95	50654.79
598.15	50545.83
598.35	50690.34
598.55	50673.71
598.75	50410.75
598.96	50972.47
599.16	50432.62
599.36	50385.19
599.56	50188.42
599.76	50082.91
599.97	50425.58
600.17	50129.28
600.37	50202.60
600.57	49411.92
600.77	50202.19
600.97	49621.79
601.18	50260.18
601.38	49631.95
601.58	49973.30
601.78	49592.22
601.98	49441.82
602.18	49834.78
602.39	50135.50
602.59	49735.66
602.79	49622.69
602.99	49568.63
603.19	49661.36
603.39	49352.77
603.60	49424.94
603.80	49484.33
604.00	49208.02
604.20	49274.21
604.40	49457.38
604.60	49046.23
604.80	49083.50
605.01	49341.63
605.21	49040.50
605.41	49027.88
605.61	48649.33
605.81	49035.17
606.01	49277.81
606.21	48765.58
606.42	49275.03
606.62	49019.77
606.82	49556.09
607.02	48956.20
607.22	49238.66
607.42	49373.09
607.62	48851.35
607.82	49011.25
