SpectraSuite Data File
++++++++++++++++++++++++++++++++++++
Date: Tue Sep 20 11:51:21 EDT 2022
User: Laboratoire
Dark Spectrum Present: No
Reference Spectrum Present: No
Number of Sampled Component Spectra: 1
Spectrometers: FLMT00174
Integration Time (usec): 15000 (FLMT00174)
Spectra Averaged: 25 (FLMT00174)
Boxcar Smoothing: 0 (FLMT00174)
Correct for Electrical Dark: No (FLMT00174)
Strobe/Lamp Enabled: No (FLMT00174)
Correct for Detector Non-linearity: No (FLMT00174)
Correct for Stray Light: No (FLMT00174)
Number of Pixels in Processed Spectrum: 3648
>>>>>Begin Processed Spectral Data<<<<<
345.74	3148.22
345.96	3148.22
346.18	3148.22
346.39	3166.49
346.61	3208.10
346.83	3211.54
347.05	3210.07
347.27	3205.64
347.49	3213.43
347.71	3221.21
347.93	3214.90
348.15	3213.43
348.36	3207.69
348.58	3223.18
348.80	3200.32
349.02	3209.49
349.24	3216.87
349.46	3303.29
349.68	3309.76
349.90	3328.93
350.11	3299.93
350.33	3324.84
350.55	3308.04
350.77	3329.42
350.99	3286.74
351.21	3332.13
351.43	3310.99
351.65	3318.94
351.86	3304.77
352.08	3324.59
352.30	3291.25
352.52	3322.30
352.74	3302.72
352.96	3312.14
353.18	3319.76
353.39	3310.58
353.61	3331.80
353.83	3331.31
354.05	3336.47
354.27	3322.05
354.49	3316.40
354.70	3326.39
354.92	3305.99
355.14	3313.45
355.36	3306.81
355.58	3303.29
355.80	3318.12
356.02	3326.88
356.23	3309.76
356.45	3305.83
356.67	3312.96
356.89	3312.30
357.11	3315.09
357.33	3337.37
357.54	3317.14
357.76	3312.22
357.98	3292.07
358.20	3326.56
358.42	3315.58
358.63	3322.38
358.85	3320.82
359.07	3327.79
359.29	3283.47
359.51	3305.99
359.73	3302.96
359.94	3327.38
360.16	3301.57
360.38	3302.55
360.60	3300.26
360.82	3331.06
361.03	3316.64
361.25	3323.28
361.47	3333.44
361.69	3345.64
361.91	3310.25
362.12	3313.94
362.34	3323.20
362.56	3337.12
362.78	3330.24
363.00	3338.60
363.21	3318.12
363.43	3332.29
363.65	3300.01
363.87	3321.72
364.09	3319.92
364.30	3299.11
364.52	3300.10
364.74	3334.75
364.96	3306.57
365.17	3321.89
365.39	3334.67
365.61	3316.23
365.83	3305.91
366.05	3320.74
366.26	3308.12
366.48	3315.09
366.70	3343.68
366.92	3314.60
367.13	3327.38
367.35	3327.38
367.57	3314.19
367.79	3320.17
368.01	3331.80
368.22	3330.41
368.44	3325.33
368.66	3318.69
368.88	3319.76
369.09	3332.70
369.31	3336.71
369.53	3327.46
369.75	3335.65
369.96	3338.35
370.18	3331.72
370.40	3344.09
370.62	3344.66
370.83	3324.92
371.05	3359.41
371.27	3339.99
371.49	3332.13
371.70	3346.30
371.92	3324.75
372.14	3340.40
372.36	3321.07
372.57	3359.49
372.79	3342.28
373.01	3332.95
373.22	3321.40
373.44	3333.93
373.66	3352.44
373.88	3346.71
374.09	3331.96
374.31	3341.14
374.53	3330.65
374.75	3348.02
374.96	3345.23
375.18	3347.77
375.40	3341.88
375.61	3350.23
375.83	3330.73
376.05	3350.72
376.27	3343.92
376.48	3337.70
376.70	3342.12
376.92	3333.19
377.13	3336.06
377.35	3342.61
377.57	3315.99
377.79	3340.24
378.00	3337.78
378.22	3358.01
378.44	3350.64
378.65	3364.81
378.87	3349.00
379.09	3364.24
379.30	3343.76
379.52	3365.55
379.74	3346.71
379.96	3358.42
380.17	3336.14
380.39	3342.20
380.61	3340.97
380.82	3332.29
381.04	3348.27
381.26	3356.95
381.47	3356.78
381.69	3372.02
381.91	3343.76
382.12	3377.02
382.34	3376.69
382.56	3365.63
382.77	3344.66
382.99	3368.74
383.21	3352.36
383.42	3379.80
383.64	3361.29
383.86	3364.89
384.07	3389.55
384.29	3373.91
384.51	3350.80
384.72	3378.58
384.94	3369.07
385.16	3394.63
385.37	3375.46
385.59	3401.18
385.81	3385.87
386.02	3370.22
386.24	3385.95
386.46	3395.53
386.67	3412.65
386.89	3404.46
387.11	3429.36
387.32	3402.00
387.54	3409.87
387.76	3424.94
387.97	3425.68
388.19	3439.85
388.40	3412.98
388.62	3427.89
388.84	3419.86
389.05	3438.29
389.27	3433.38
389.49	3439.44
389.70	3422.97
389.92	3437.56
390.14	3432.56
390.35	3452.88
390.57	3433.30
390.78	3450.75
391.00	3445.99
391.22	3449.27
391.43	3449.43
391.65	3454.19
391.86	3468.85
392.08	3476.47
392.30	3469.59
392.51	3463.85
392.73	3491.13
392.95	3481.55
393.16	3458.12
393.38	3487.85
393.59	3468.93
393.81	3485.89
394.03	3481.79
394.24	3483.92
394.46	3490.80
394.67	3494.41
394.89	3469.42
395.11	3490.48
395.32	3492.69
395.54	3501.21
395.75	3487.61
395.97	3483.76
396.19	3469.75
396.40	3504.16
396.62	3504.40
396.83	3494.33
397.05	3477.94
397.26	3508.01
397.48	3509.15
397.70	3500.88
397.91	3517.43
398.13	3507.60
398.34	3518.90
398.56	3536.19
398.78	3514.15
398.99	3570.76
399.21	3500.72
399.42	3543.15
399.64	3525.21
399.85	3536.43
400.07	3546.67
400.29	3541.84
400.50	3547.82
400.72	3569.28
400.93	3547.74
401.15	3555.27
401.36	3573.30
401.58	3594.92
401.79	3595.09
402.01	3616.22
402.23	3585.01
402.44	3636.05
402.66	3598.44
402.87	3624.50
403.09	3605.24
403.30	3630.56
403.52	3620.32
403.73	3625.97
403.95	3643.50
404.16	3647.84
404.38	3660.46
404.60	3649.97
404.81	3683.31
405.03	3703.63
405.24	3692.65
405.46	3728.29
405.67	3726.81
405.89	3750.81
406.10	3707.07
406.32	3745.16
406.53	3765.64
406.75	3790.87
406.96	3767.85
407.18	3789.23
407.39	3779.98
407.61	3797.43
407.82	3803.65
408.04	3827.41
408.25	3816.51
408.47	3855.18
408.68	3863.29
408.90	3837.89
409.12	3889.91
409.33	3919.73
409.55	3878.44
409.76	3916.13
409.98	3905.48
410.19	3918.42
410.41	3941.36
410.62	3951.76
410.84	3948.73
411.05	3949.79
411.27	3981.50
411.48	3972.65
411.70	3990.18
411.91	3987.64
412.12	4003.29
412.34	3963.15
412.55	3996.98
412.77	3979.04
412.98	4007.87
413.20	4014.43
413.41	3991.57
413.63	4018.36
413.84	4031.71
414.06	4038.51
414.27	4044.08
414.49	4034.66
414.70	4039.41
414.92	4058.42
415.13	4031.22
415.35	4051.62
415.56	4052.19
415.78	4038.02
415.99	4051.13
416.21	4063.83
416.42	4061.12
416.63	4074.07
416.85	4080.54
417.06	4048.26
417.28	4036.46
417.49	4070.87
417.71	4074.97
417.92	4046.38
418.14	4061.12
418.35	4076.93
418.57	4089.96
418.78	4078.65
418.99	4062.19
419.21	4092.82
419.42	4075.70
419.64	4084.55
419.85	4080.21
420.07	4108.47
420.28	4082.83
420.50	4075.21
420.71	4100.03
420.92	4109.54
421.14	4140.34
421.35	4109.70
421.57	4119.69
421.78	4128.62
422.00	4144.52
422.21	4134.77
422.42	4166.88
422.64	4135.01
422.85	4163.03
423.07	4199.16
423.28	4179.49
423.50	4186.70
423.71	4222.09
423.92	4236.76
424.14	4226.02
424.35	4233.48
424.57	4252.57
424.78	4263.54
424.99	4259.69
425.21	4278.37
425.42	4279.35
425.64	4294.34
425.85	4319.82
426.06	4328.26
426.28	4339.40
426.49	4377.16
426.71	4387.98
426.92	4395.60
427.13	4416.16
427.35	4470.80
427.56	4487.75
427.78	4494.23
427.99	4504.30
428.20	4530.68
428.42	4584.34
428.63	4580.81
428.84	4552.39
429.06	4608.18
429.27	4660.93
429.49	4665.27
429.70	4705.74
429.91	4710.41
430.13	4734.33
430.34	4770.05
430.56	4777.50
430.77	4836.07
430.98	4825.51
431.20	4853.36
431.41	4921.11
431.62	4928.56
431.84	4923.15
432.05	4992.21
432.26	5003.35
432.48	4986.15
432.69	5093.46
432.91	5074.54
433.12	5146.63
433.33	5141.71
433.55	5210.28
433.76	5238.95
433.97	5208.56
434.19	5271.14
434.40	5324.15
434.61	5346.18
434.83	5374.44
435.04	5372.97
435.25	5427.53
435.47	5464.14
435.68	5450.63
435.89	5521.16
436.11	5513.95
436.32	5550.49
436.53	5570.15
436.75	5581.45
436.96	5609.88
437.17	5582.84
437.39	5634.86
437.60	5672.63
437.81	5713.59
438.03	5704.90
438.24	5705.72
438.45	5809.27
438.67	5755.94
438.88	5806.65
439.09	5847.85
439.31	5831.80
439.52	5848.43
439.73	5843.26
439.94	5811.23
440.16	5882.83
440.37	5833.43
440.58	5913.96
440.80	5900.61
441.01	5881.19
441.22	5991.70
441.44	5968.60
441.65	5914.78
441.86	5908.55
442.08	5944.02
442.29	5938.45
442.50	5962.21
442.71	5948.53
442.93	5962.37
443.14	5952.38
443.35	6001.78
443.57	5929.61
443.78	5966.06
443.99	5985.31
444.20	5934.52
444.42	5984.33
444.63	5967.70
444.84	6012.51
445.06	6022.34
445.27	5962.87
445.48	5936.41
445.69	5989.33
445.91	5949.35
446.12	5913.71
446.33	5982.53
446.54	6023.24
446.76	5943.53
446.97	5959.51
447.18	5935.59
447.39	6010.62
447.61	6000.55
447.82	6015.29
448.03	5965.16
448.25	6020.54
448.46	6028.81
448.67	6066.17
448.88	5978.92
449.10	6067.97
449.31	6069.11
449.52	6062.32
449.73	6044.46
449.95	6114.50
450.16	6073.87
450.37	6136.12
450.58	6226.23
450.79	6077.96
451.01	6129.73
451.22	6113.43
451.43	6148.33
451.64	6206.74
451.86	6195.19
452.07	6210.34
452.28	6249.99
452.49	6353.21
452.71	6240.65
452.92	6236.31
453.13	6307.83
453.34	6335.02
453.55	6366.07
453.77	6418.99
453.98	6415.71
454.19	6392.28
454.40	6421.86
454.62	6516.47
454.83	6464.29
455.04	6598.47
455.25	6526.96
455.46	6697.84
455.68	6625.26
455.89	6629.11
456.10	6663.35
456.31	6709.80
456.52	6781.23
456.74	6766.24
456.95	6876.42
457.16	6856.85
457.37	6966.04
457.58	6968.25
457.80	6959.65
458.01	6986.52
458.22	7220.81
458.43	7131.60
458.64	7188.62
458.86	7119.72
459.07	7250.71
459.28	7270.62
459.49	7387.68
459.70	7540.13
459.91	7529.48
460.13	7490.57
460.34	7597.88
460.55	7584.45
460.76	7773.02
460.97	7800.63
461.19	7794.81
461.40	8014.44
461.61	7978.56
461.82	8022.88
462.03	8135.11
462.24	8143.30
462.46	8147.07
462.67	8213.17
462.88	8364.81
463.09	8384.14
463.30	8524.55
463.51	8479.08
463.72	8739.58
463.94	8767.85
464.15	8796.03
464.36	8802.09
464.57	9040.06
464.78	9089.21
464.99	9164.50
465.20	9149.10
465.42	9366.75
465.63	9359.95
465.84	9412.79
466.05	9596.86
466.26	9684.60
466.47	9788.31
466.68	9760.54
466.90	9999.25
467.11	9942.15
467.32	10090.18
467.53	10277.85
467.74	10127.45
467.95	10289.90
468.16	10493.87
468.37	10612.98
468.59	10596.52
468.80	10791.24
469.01	10689.82
469.22	10902.98
469.43	11159.87
469.64	11056.57
469.85	11203.62
470.06	11298.07
470.28	11477.14
470.49	11291.76
470.70	11465.27
470.91	11744.94
471.12	11620.34
471.33	11922.78
471.54	11839.96
471.75	11877.07
471.96	12154.45
472.17	12146.34
472.39	12455.91
472.60	12193.44
472.81	12502.03
473.02	12460.58
473.23	12626.06
473.44	12723.46
473.65	12700.52
473.86	12793.50
474.07	12813.08
474.28	12890.98
474.49	13211.36
474.71	13092.17
474.92	13199.73
475.13	13144.19
475.34	13242.08
475.55	13280.59
475.76	13315.65
475.97	13596.63
476.18	13544.77
476.39	13695.67
476.60	13793.97
476.81	13770.05
477.02	13900.47
477.23	13885.23
477.44	13870.16
477.65	13987.71
477.87	14125.17
478.08	14131.72
478.29	14117.14
478.50	14406.89
478.71	14208.32
478.92	14365.85
479.13	14382.23
479.34	14418.11
479.55	14473.65
479.76	14413.93
479.97	14462.59
480.18	14824.43
480.39	14513.63
480.60	14821.07
480.81	14787.07
481.02	14800.01
481.23	14782.32
481.44	14981.30
481.65	15043.07
481.86	15171.84
482.07	14837.29
482.28	15395.24
482.49	15145.88
482.71	15126.54
482.92	15255.89
483.13	15416.04
483.34	15255.32
483.55	15390.24
483.76	15417.52
483.97	15552.68
484.18	15531.63
484.39	15613.47
484.60	15533.68
484.81	15807.86
485.02	15675.07
485.23	15856.36
485.44	15867.50
485.65	16031.17
485.86	15865.61
486.07	16178.87
486.28	16086.96
486.49	16222.62
486.70	16295.61
486.91	16414.96
487.12	16283.40
487.33	16294.38
487.54	16577.49
487.75	16569.05
487.96	16584.29
488.17	16585.43
488.38	16785.15
488.59	16787.61
488.80	16877.06
489.01	16909.34
489.22	17094.64
489.43	17102.83
489.64	16982.41
489.85	17425.02
490.06	17100.87
490.26	17401.43
490.47	17327.54
490.68	17523.32
490.89	17794.47
491.10	17543.06
491.31	17796.93
491.52	18010.66
491.73	17930.70
491.94	17988.62
492.15	18190.71
492.36	18237.49
492.57	18287.46
492.78	18358.40
492.99	18397.48
493.20	18636.68
493.41	18657.98
493.62	18818.87
493.83	18853.60
494.04	18946.33
494.25	19166.69
494.46	19231.66
494.67	19197.66
494.88	19449.56
495.08	19498.46
495.29	19665.99
495.50	19914.61
495.71	19856.86
495.92	20121.05
496.13	20149.31
496.34	20168.72
496.55	20339.28
496.76	20684.65
496.97	20458.80
497.18	20826.86
497.39	20749.28
497.60	21239.81
497.81	21043.53
498.02	21355.97
498.22	21214.66
498.43	21634.25
498.64	21723.54
498.85	21846.58
499.06	22040.16
499.27	22380.37
499.48	22047.04
499.69	22430.58
499.90	22664.21
500.11	22833.95
500.32	23152.61
500.52	23032.19
500.73	23542.71
500.94	23665.26
501.15	23830.82
501.36	23934.45
501.57	23932.81
501.78	24243.69
501.99	24572.10
502.20	24634.44
502.41	24781.16
502.61	24805.49
502.82	25250.39
503.03	25131.28
503.24	25700.29
503.45	25587.81
503.66	26006.34
503.87	26130.77
504.08	26493.59
504.28	26435.84
504.49	26672.83
504.70	26898.19
504.91	27178.02
505.12	27054.49
505.33	27709.51
505.54	27824.03
505.75	27956.82
505.95	28278.84
506.16	28334.55
506.37	28291.62
506.58	28894.05
506.79	28645.43
507.00	29304.22
507.21	29137.27
507.41	29232.13
507.62	29545.80
507.83	30102.93
508.04	29824.41
508.25	30401.52
508.46	30251.86
508.67	30838.56
508.87	30692.42
509.08	31295.99
509.29	31252.74
509.50	31546.91
509.71	31776.37
509.92	31879.50
510.12	31889.00
510.33	32145.00
510.54	32193.90
510.75	32527.15
510.96	32920.44
511.17	33115.00
511.37	33086.90
511.58	33367.88
511.79	33291.21
512.00	33393.03
512.21	33991.61
512.42	34041.50
512.62	34185.19
512.83	34499.92
513.04	34381.46
513.25	34763.37
513.46	34169.21
513.66	35195.90
513.87	34879.04
514.08	35247.10
514.29	35070.89
514.50	35203.52
514.71	35504.41
514.91	35415.93
515.12	35466.40
515.33	35801.61
515.54	35637.77
515.75	36105.03
515.95	35851.66
516.16	35857.97
516.37	36331.21
516.58	36396.58
516.78	36152.55
516.99	36347.60
517.20	36397.32
517.41	36400.19
517.62	36544.61
517.82	36453.52
518.03	36917.59
518.24	37209.95
518.45	36579.67
518.66	37035.47
518.86	36759.89
519.07	37061.93
519.28	36451.63
519.49	37027.60
519.69	36968.21
519.90	37012.37
520.11	37012.69
520.32	36816.25
520.52	37220.19
520.73	36693.87
520.94	37230.52
521.15	37041.20
521.36	36597.04
521.56	37267.46
521.77	36565.83
521.98	37110.75
522.19	36634.15
522.39	36854.92
522.60	36694.52
522.81	36807.90
523.02	36397.32
523.22	36654.46
523.43	36707.46
523.64	36547.80
523.84	36554.03
524.05	36758.25
524.26	36628.33
524.47	36361.36
524.67	36475.80
524.88	36497.67
525.09	36690.02
525.30	36275.10
525.50	36154.92
525.71	36166.88
525.92	36134.03
526.13	36335.14
526.33	36049.41
526.54	35747.29
526.75	36039.74
526.95	36183.27
527.16	35509.24
527.37	36008.78
527.58	35961.35
527.78	35825.45
527.99	36034.42
528.20	36058.75
528.40	35609.10
528.61	35482.78
528.82	35848.87
529.03	35592.55
529.23	35474.75
529.44	35596.40
529.65	35464.43
529.85	35487.69
530.06	35302.07
530.27	35295.68
530.47	34811.21
530.68	35557.49
530.89	34848.24
531.09	35261.02
531.30	35027.97
531.51	34738.14
531.72	35110.05
531.92	35035.99
532.13	35130.45
532.34	34941.30
532.54	34883.87
532.75	34997.57
532.96	34892.72
533.16	35002.24
533.37	35041.07
533.58	34738.14
533.78	34967.84
533.99	34964.72
534.20	34642.95
534.40	34899.68
534.61	34941.71
534.82	34962.92
535.02	34840.70
535.23	34859.21
535.44	35036.98
535.64	34818.01
535.85	34965.71
536.06	34910.33
536.26	34809.65
536.47	34900.50
536.68	35320.99
536.88	34795.32
537.09	35279.21
537.29	34690.95
537.50	35415.52
537.71	35026.90
537.91	35179.11
538.12	35233.66
538.33	34971.93
538.53	35136.26
538.74	35233.91
538.95	35247.67
539.15	35143.55
539.36	35416.10
539.56	35668.08
539.77	35318.37
539.98	35350.89
540.18	35564.29
540.39	35400.37
540.60	35657.76
540.80	35781.62
541.01	35781.78
541.21	35823.81
541.42	35958.32
541.63	35912.44
541.83	36203.25
542.04	36145.75
542.25	36085.21
542.45	36277.80
542.66	36363.24
542.86	36538.47
543.07	35806.60
543.28	36603.84
543.48	36506.27
543.69	36807.49
543.89	36668.96
544.10	37122.46
544.31	36975.01
544.51	36941.26
544.72	37201.84
544.92	37151.55
545.13	37602.18
545.33	37558.85
545.54	37364.45
545.75	37732.68
545.95	37762.33
546.16	37798.54
546.36	38303.24
546.57	37643.14
546.78	37173.34
546.98	37785.02
547.19	37220.52
547.39	38290.22
547.60	38587.66
547.80	39117.10
548.01	39201.97
548.22	39030.68
548.42	39184.11
548.63	39534.32
548.83	39412.34
549.04	39913.11
549.24	39664.81
549.45	40098.65
549.65	40454.76
549.86	39998.63
550.07	40305.58
550.27	40769.08
550.48	40858.45
550.68	40892.12
550.89	40971.42
551.09	41305.48
551.30	41237.41
551.50	41645.53
551.71	41547.80
551.91	41731.38
552.12	42031.20
552.33	42474.87
552.53	42129.50
552.74	42763.39
552.94	42961.80
553.15	42869.15
553.35	43270.22
553.56	42999.40
553.76	43593.96
553.97	43361.40
554.17	43773.94
554.38	44482.29
554.58	44136.35
554.79	44723.46
554.99	44379.97
555.20	44584.44
555.40	45245.36
555.61	45092.09
555.81	44962.01
556.02	45959.29
556.22	45874.34
556.43	45785.86
556.63	46031.29
556.84	46091.67
557.04	46718.43
557.25	46318.01
557.45	47015.30
557.66	47118.93
557.86	47215.10
558.07	47859.15
558.27	47564.16
558.48	47841.12
558.68	48078.85
558.89	48405.63
559.09	48578.80
559.30	48535.30
559.50	48934.08
559.71	48689.72
559.91	49533.56
560.12	49290.76
560.32	49489.49
560.53	49858.45
560.73	49798.00
560.94	50365.04
561.14	50074.72
561.35	50816.58
561.55	50668.88
561.76	50942.49
561.96	50507.91
562.17	51219.45
562.37	51602.50
562.57	51484.05
562.78	51623.97
562.98	52018.73
563.19	52153.74
563.39	52484.20
563.60	52727.58
563.80	52262.52
564.01	53136.52
564.21	52788.93
564.42	52921.31
564.62	53260.46
564.82	53684.72
565.03	53364.50
565.23	53491.47
565.44	53760.49
565.64	53644.00
565.85	54164.68
566.05	53965.37
566.25	54416.91
566.46	54096.03
566.66	54499.15
566.87	54547.98
567.07	54696.00
567.28	54969.45
567.48	55298.51
567.68	54548.14
567.89	55639.46
568.09	55189.56
568.30	55211.11
568.50	55699.43
568.71	55612.10
568.91	55968.69
569.11	55547.06
569.32	55711.71
569.52	56002.28
569.73	55471.45
569.93	56059.21
570.13	55923.64
570.34	55861.05
570.54	56364.28
570.75	56043.81
570.95	56202.16
571.15	56138.59
571.36	56645.34
571.56	55994.25
571.77	56014.32
571.97	55578.76
572.17	56384.76
572.38	56238.78
572.58	56491.01
572.79	56205.19
572.99	56379.76
573.19	56339.46
573.40	56253.28
573.60	56405.81
573.81	56124.50
574.01	56428.75
574.21	56242.55
574.42	56184.30
574.62	55915.28
574.82	56370.09
575.03	55892.67
575.23	56409.17
575.43	55896.77
575.64	55779.21
575.84	56116.06
576.05	55635.61
576.25	55869.98
576.45	55580.89
576.66	56036.93
576.86	55502.08
577.06	55827.30
577.27	55576.30
577.47	55569.17
577.67	55412.96
577.88	54909.89
578.08	55513.55
578.28	55445.40
578.49	55158.19
578.69	55230.19
578.89	54873.11
579.10	54900.64
579.30	55425.00
579.50	54692.07
579.71	54244.71
579.91	54748.92
580.11	54274.04
580.32	54238.90
580.52	54177.78
580.72	54649.47
580.93	53920.64
581.13	53832.01
581.33	54194.09
581.54	53596.65
581.74	53541.36
581.94	53634.58
582.15	53857.97
582.35	53333.94
582.55	53389.15
582.76	52963.42
582.96	53371.29
583.16	52836.69
583.37	52979.31
583.57	52428.16
583.77	52965.39
583.97	51844.25
584.18	52872.90
584.38	52522.29
584.58	52043.56
584.79	52448.73
584.99	52187.49
585.19	51930.84
585.40	51704.74
585.60	51879.72
585.80	51285.97
586.00	51579.08
586.21	51231.66
586.41	51245.09
586.61	51491.18
586.82	51217.57
587.02	50900.71
587.22	51183.98
587.42	50433.28
587.63	50946.25
587.83	50110.85
588.03	50422.22
588.23	49931.20
588.44	50110.68
588.64	49820.77
588.84	50000.01
589.05	50116.50
589.25	50023.03
589.45	49824.21
589.65	49493.83
589.86	49746.14
590.06	49544.38
590.26	49142.40
590.46	49384.39
590.67	48655.72
590.87	49298.95
591.07	49323.20
591.27	48762.79
591.48	49027.88
591.68	48439.38
591.88	49270.36
592.08	48373.02
592.29	48653.18
592.49	48427.01
592.69	48565.45
592.89	48160.85
593.10	48141.52
593.30	47949.67
593.50	48373.43
593.70	47330.93
593.90	48037.48
594.11	47689.90
594.31	47666.23
594.51	47843.99
594.71	47885.77
594.92	47720.13
595.12	47437.67
595.32	47548.67
595.52	47676.47
595.72	46977.70
595.93	47613.72
596.13	47324.38
596.33	46938.62
596.53	47315.12
596.73	47044.46
596.94	46964.76
597.14	47208.87
597.34	46918.31
597.54	47121.55
597.74	46691.97
597.95	46820.42
598.15	46830.41
598.35	46916.83
598.55	46907.99
598.75	46638.56
598.96	47071.50
599.16	46600.22
599.36	46742.02
599.56	46596.04
599.76	46390.67
599.97	46779.95
600.17	46557.78
600.37	46642.90
600.57	46028.83
600.77	46859.41
600.97	46531.73
601.18	46892.67
601.38	46585.47
601.58	46723.92
601.78	46568.02
601.98	46311.78
602.18	46611.93
602.39	46931.33
602.59	46666.00
602.79	46531.73
602.99	46536.49
603.19	46519.04
603.39	46356.84
603.60	46345.94
603.80	46436.87
604.00	46364.54
604.20	46472.67
604.40	46613.82
604.60	46461.61
604.80	46522.89
605.01	46604.64
605.21	46446.29
605.41	46529.93
605.61	46241.91
605.81	46689.10
606.01	46939.77
606.21	46465.22
606.42	46738.99
606.62	46439.49
606.82	46990.64
607.02	46653.22
607.22	46825.82
607.42	47119.17
607.62	46520.02
607.82	47008.34
