SpectraSuite Data File
++++++++++++++++++++++++++++++++++++
Date: Tue Sep 20 12:10:23 EDT 2022
User: Laboratoire
Dark Spectrum Present: No
Reference Spectrum Present: No
Number of Sampled Component Spectra: 1
Spectrometers: FLMT00174
Integration Time (usec): 15000 (FLMT00174)
Spectra Averaged: 25 (FLMT00174)
Boxcar Smoothing: 0 (FLMT00174)
Correct for Electrical Dark: No (FLMT00174)
Strobe/Lamp Enabled: No (FLMT00174)
Correct for Detector Non-linearity: No (FLMT00174)
Correct for Stray Light: No (FLMT00174)
Number of Pixels in Processed Spectrum: 3648
>>>>>Begin Processed Spectral Data<<<<<
345.74	3166.57
345.96	3166.57
346.18	3166.57
346.39	3189.51
346.61	3233.09
346.83	3219.57
347.05	3208.02
347.27	3214.66
347.49	3212.69
347.71	3221.45
347.93	3226.37
348.15	3233.66
348.36	3227.52
348.58	3225.14
348.80	3237.10
349.02	3220.55
349.24	3219.57
349.46	3303.29
349.68	3327.46
349.90	3334.26
350.11	3325.08
350.33	3311.98
350.55	3319.76
350.77	3310.09
350.99	3302.23
351.21	3316.81
351.43	3291.66
351.65	3316.15
351.86	3308.37
352.08	3311.57
352.30	3287.40
352.52	3340.32
352.74	3296.33
352.96	3297.56
353.18	3334.26
353.39	3333.52
353.61	3314.92
353.83	3334.34
354.05	3343.76
354.27	3330.82
354.49	3331.55
354.70	3317.71
354.92	3324.75
355.14	3311.24
355.36	3297.48
355.58	3325.49
355.80	3323.03
356.02	3322.79
356.23	3316.15
356.45	3340.65
356.67	3326.47
356.89	3334.18
357.11	3309.76
357.33	3335.90
357.54	3322.13
357.76	3323.12
357.98	3303.78
358.20	3352.44
358.42	3300.18
358.63	3333.68
358.85	3315.99
359.07	3337.70
359.29	3309.52
359.51	3308.04
359.73	3316.23
359.94	3330.00
360.16	3295.02
360.38	3310.09
360.60	3289.04
360.82	3323.53
361.03	3344.91
361.25	3317.14
361.47	3314.02
361.69	3341.96
361.91	3314.68
362.12	3300.92
362.34	3327.79
362.56	3347.77
362.78	3338.84
363.00	3344.25
363.21	3314.76
363.43	3321.40
363.65	3308.12
363.87	3318.53
364.09	3334.18
364.30	3319.27
364.52	3315.74
364.74	3326.39
364.96	3326.15
365.17	3336.80
365.39	3318.04
365.61	3312.47
365.83	3311.73
366.05	3317.46
366.26	3328.36
366.48	3321.97
366.70	3332.78
366.92	3334.58
367.13	3327.46
367.35	3327.87
367.57	3327.79
367.79	3331.55
368.01	3331.23
368.22	3350.39
368.44	3323.85
368.66	3322.95
368.88	3333.77
369.09	3332.62
369.31	3335.90
369.53	3323.03
369.75	3318.69
369.96	3339.42
370.18	3322.95
370.40	3337.29
370.62	3325.90
370.83	3319.92
371.05	3332.13
371.27	3355.15
371.49	3335.81
371.70	3325.25
371.92	3324.18
372.14	3347.04
372.36	3331.72
372.57	3355.23
372.79	3341.88
373.01	3342.45
373.22	3330.32
373.44	3333.36
373.66	3333.36
373.88	3347.61
374.09	3331.31
374.31	3338.27
374.53	3331.31
374.75	3377.10
374.96	3337.78
375.18	3366.45
375.40	3355.47
375.61	3345.15
375.83	3313.37
376.05	3359.57
376.27	3352.28
376.48	3355.56
376.70	3342.12
376.92	3335.81
377.13	3356.62
377.35	3344.50
377.57	3345.81
377.79	3335.32
378.00	3350.80
378.22	3358.18
378.44	3355.97
378.65	3360.39
378.87	3350.72
379.09	3355.39
379.30	3344.82
379.52	3365.47
379.74	3347.69
379.96	3362.68
380.17	3353.10
380.39	3340.48
380.61	3332.45
380.82	3355.88
381.04	3330.41
381.26	3346.79
381.47	3368.09
381.69	3382.18
381.91	3344.33
382.12	3371.20
382.34	3360.96
382.56	3376.53
382.77	3364.32
382.99	3380.38
383.21	3363.75
383.42	3383.65
383.64	3368.74
383.86	3380.70
384.07	3380.62
384.29	3374.89
384.51	3370.14
384.72	3381.93
384.94	3371.04
385.16	3387.18
385.37	3378.41
385.59	3375.22
385.81	3391.19
386.02	3375.46
386.24	3405.77
386.46	3380.46
386.67	3408.97
386.89	3409.29
387.11	3427.23
387.32	3386.93
387.54	3405.36
387.76	3416.59
387.97	3411.10
388.19	3429.77
388.40	3423.88
388.62	3422.97
388.84	3426.58
389.05	3439.52
389.27	3446.40
389.49	3456.64
389.70	3445.91
389.92	3462.21
390.14	3449.35
390.35	3458.04
390.57	3459.35
390.78	3451.40
391.00	3460.82
391.22	3453.12
391.43	3461.48
391.65	3476.88
391.86	3489.17
392.08	3470.32
392.30	3472.37
392.51	3493.51
392.73	3506.86
392.95	3494.00
393.16	3482.45
393.38	3499.81
393.59	3470.32
393.81	3531.27
394.03	3495.80
394.24	3497.19
394.46	3511.86
394.67	3504.24
394.89	3506.37
395.11	3508.09
395.32	3528.32
395.54	3524.06
395.75	3490.72
395.97	3503.17
396.19	3510.14
396.40	3497.44
396.62	3510.38
396.83	3494.98
397.05	3512.10
397.26	3510.96
397.48	3519.23
397.70	3525.62
397.91	3537.01
398.13	3502.35
398.34	3536.68
398.56	3551.67
398.78	3528.49
398.99	3566.91
399.21	3543.89
399.42	3556.50
399.64	3541.35
399.85	3534.63
400.07	3552.49
400.29	3576.90
400.50	3548.39
400.72	3569.77
400.93	3545.28
401.15	3561.34
401.36	3569.69
401.58	3584.19
401.79	3587.80
402.01	3593.53
402.23	3579.52
402.44	3618.11
402.66	3606.55
402.87	3600.33
403.09	3602.21
403.30	3626.79
403.52	3597.46
403.73	3619.74
403.95	3622.37
404.16	3641.45
404.38	3635.23
404.60	3633.01
404.81	3663.82
405.03	3677.17
405.24	3686.02
405.46	3696.09
405.67	3696.17
405.89	3712.72
406.10	3699.86
406.32	3703.79
406.53	3733.12
406.75	3757.86
406.96	3739.67
407.18	3759.25
407.39	3768.02
407.61	3790.38
407.82	3803.65
408.04	3819.46
408.25	3820.61
408.47	3829.70
408.68	3837.07
408.90	3846.66
409.12	3881.88
409.33	3881.15
409.55	3885.49
409.76	3895.89
409.98	3899.09
410.19	3953.73
410.41	3949.30
410.62	3962.08
410.84	3938.33
411.05	3998.37
411.27	3982.48
411.48	4003.04
411.70	4002.39
411.91	4019.34
412.12	4036.79
412.34	4036.05
412.55	4053.67
412.77	4042.03
412.98	4080.78
413.20	4067.10
413.41	4097.00
413.63	4088.24
413.84	4097.49
414.06	4117.40
414.27	4112.49
414.49	4107.49
414.70	4119.28
414.92	4126.17
415.13	4115.93
415.35	4135.50
415.56	4138.86
415.78	4139.60
415.99	4151.56
416.21	4137.88
416.42	4154.18
416.63	4147.87
416.85	4196.53
417.06	4143.37
417.28	4135.67
417.49	4184.90
417.71	4172.29
417.92	4149.68
418.14	4149.76
418.35	4163.85
418.57	4179.09
418.78	4170.73
418.99	4136.24
419.21	4187.69
419.42	4195.63
419.64	4156.80
419.85	4186.29
420.07	4207.84
420.28	4195.63
420.50	4183.84
420.71	4205.54
420.92	4191.95
421.14	4217.67
421.35	4201.20
421.57	4199.32
421.78	4218.00
422.00	4214.31
422.21	4225.04
422.42	4231.35
422.64	4197.43
422.85	4254.94
423.07	4259.20
423.28	4243.64
423.50	4268.79
423.71	4282.14
423.92	4303.44
424.14	4275.50
424.35	4294.26
424.57	4343.09
424.78	4343.74
424.99	4335.47
425.21	4329.73
425.42	4342.68
425.64	4361.44
425.85	4375.03
426.06	4344.89
426.28	4408.87
426.49	4424.92
426.71	4422.79
426.92	4428.53
427.13	4471.21
427.35	4523.06
427.56	4501.68
427.78	4509.14
427.99	4550.26
428.20	4581.63
428.42	4604.82
428.63	4615.30
428.84	4599.90
429.06	4632.83
429.27	4665.76
429.49	4679.12
429.70	4735.48
429.91	4724.50
430.13	4757.27
430.34	4779.55
430.56	4796.26
430.77	4841.97
430.98	4818.05
431.20	4899.97
431.41	4927.66
431.62	4962.80
431.84	4909.31
432.05	5010.48
432.26	5016.95
432.48	4992.87
432.69	5115.66
432.91	5099.11
433.12	5134.83
433.33	5195.45
433.55	5268.44
433.76	5262.95
433.97	5247.88
434.19	5312.35
434.40	5367.07
434.61	5399.02
434.83	5456.77
435.04	5421.55
435.25	5493.14
435.47	5537.05
435.68	5511.82
435.89	5653.38
436.11	5631.75
436.32	5687.54
436.53	5694.50
436.75	5699.99
436.96	5774.86
437.17	5742.34
437.39	5789.03
437.60	5816.15
437.81	5896.59
438.03	5868.82
438.24	5921.01
438.45	6030.20
438.67	5992.52
438.88	6049.70
439.09	6130.23
439.31	6109.58
439.52	6147.26
439.73	6126.62
439.94	6101.39
440.16	6183.88
440.37	6167.34
440.58	6242.86
440.80	6225.82
441.01	6212.80
441.22	6348.38
441.44	6319.95
441.65	6289.72
441.86	6307.09
442.08	6375.16
442.29	6320.69
442.50	6368.77
442.71	6355.75
442.93	6359.35
443.14	6350.75
443.35	6405.55
443.57	6348.13
443.78	6429.23
443.99	6424.31
444.20	6370.08
444.42	6401.13
444.63	6377.05
444.84	6424.64
445.06	6434.64
445.27	6374.18
445.48	6394.91
445.69	6399.74
445.91	6395.56
446.12	6360.42
446.33	6411.70
446.54	6468.96
446.76	6374.43
446.97	6399.17
447.18	6400.07
447.39	6396.79
447.61	6406.70
447.82	6423.25
448.03	6416.20
448.25	6408.42
448.46	6442.25
448.67	6473.96
448.88	6373.77
449.10	6454.30
449.31	6471.01
449.52	6407.03
449.73	6436.77
449.95	6491.65
450.16	6430.87
450.37	6510.41
450.58	6603.39
450.79	6444.14
451.01	6495.99
451.22	6477.81
451.43	6511.97
451.64	6538.35
451.86	6540.15
452.07	6570.62
452.28	6570.21
452.49	6644.02
452.71	6573.57
452.92	6574.88
453.13	6607.40
453.34	6631.40
453.55	6698.74
453.77	6774.43
453.98	6777.96
454.19	6705.38
454.40	6728.48
454.62	6795.16
454.83	6726.92
455.04	6862.91
455.25	6758.46
455.46	6997.66
455.68	6884.62
455.89	6905.50
456.10	6914.93
456.31	6968.91
456.52	7016.42
456.74	7039.11
456.95	7144.38
457.16	7127.59
457.37	7208.03
457.58	7217.45
457.80	7187.31
458.01	7195.09
458.22	7516.37
458.43	7382.44
458.64	7458.46
458.86	7383.91
459.07	7484.02
459.28	7465.58
459.49	7622.95
459.70	7770.73
459.91	7720.19
460.13	7755.00
460.34	7786.13
460.55	7822.50
460.76	7943.17
460.97	7983.88
461.19	8015.59
461.40	8245.78
461.61	8132.89
461.82	8241.44
462.03	8325.57
462.24	8356.04
462.46	8393.15
462.67	8448.12
462.88	8570.42
463.09	8596.06
463.30	8787.34
463.51	8716.73
463.72	8929.14
463.94	9022.12
464.15	9042.36
464.36	9038.10
464.57	9320.88
464.78	9318.59
464.99	9373.80
465.20	9412.05
465.42	9631.27
465.63	9641.51
465.84	9646.67
466.05	9839.26
466.26	9978.77
466.47	10120.16
466.68	10073.22
466.90	10272.78
467.11	10298.50
467.32	10490.84
467.53	10663.94
467.74	10557.12
467.95	10719.97
468.16	10947.29
468.37	11078.20
468.59	11090.32
468.80	11335.18
469.01	11214.19
469.22	11488.86
469.43	11732.89
469.64	11668.18
469.85	11885.35
470.06	11970.71
470.28	12151.66
470.49	11998.48
470.70	12249.23
470.91	12503.34
471.12	12393.98
471.33	12725.59
471.54	12670.29
471.75	12769.90
471.96	13101.43
472.17	13107.90
472.39	13431.64
472.60	13171.14
472.81	13575.66
473.02	13465.07
473.23	13762.60
473.44	13780.95
473.65	13804.46
473.86	13913.49
474.07	14054.23
474.28	14150.81
474.49	14500.77
474.71	14400.09
474.92	14657.07
475.13	14560.81
475.34	14608.24
475.55	14683.36
475.76	14817.30
475.97	15160.46
476.18	15036.51
476.39	15265.15
476.60	15396.79
476.81	15446.27
477.02	15555.72
477.23	15540.56
477.44	15544.57
477.65	15731.51
477.87	15891.91
478.08	15888.31
478.29	15858.24
478.50	16207.95
478.71	16048.70
478.92	16262.67
479.13	16213.93
479.34	16219.75
479.55	16341.81
479.76	16260.95
479.97	16303.22
480.18	16708.89
480.39	16364.83
480.60	16684.80
480.81	16670.22
481.02	16697.91
481.23	16724.29
481.44	16931.29
481.65	17010.84
481.86	17144.69
482.07	16755.17
482.28	17449.51
482.49	17161.40
482.71	17191.80
482.92	17307.22
483.13	17419.20
483.34	17299.11
483.55	17341.63
483.76	17347.03
483.97	17583.86
484.18	17492.77
484.39	17612.86
484.60	17476.96
484.81	17824.95
485.02	17624.16
485.23	17827.65
485.44	17853.70
485.65	17948.07
485.86	17754.58
486.07	18030.23
486.28	17970.68
486.49	18127.80
486.70	18191.86
486.91	18296.80
487.12	18139.27
487.33	18116.00
487.54	18480.95
487.75	18430.98
487.96	18437.94
488.17	18420.25
488.38	18598.59
488.59	18580.16
488.80	18645.28
489.01	18658.22
489.22	18890.05
489.43	18816.16
489.64	18646.18
489.85	19072.73
490.06	18774.06
490.26	19088.05
490.47	19013.67
490.68	19270.65
490.89	19419.99
491.10	19162.60
491.31	19426.95
491.52	19632.89
491.73	19525.66
491.94	19515.67
492.15	19690.81
492.36	19835.72
492.57	19902.82
492.78	19900.77
492.99	20009.64
493.20	20147.75
493.41	20233.85
493.62	20283.57
493.83	20303.64
494.04	20428.24
494.25	20622.47
494.46	20712.17
494.67	20612.56
494.88	20836.03
495.08	20908.04
495.29	21016.75
495.50	21220.40
495.71	21159.61
495.92	21426.34
496.13	21457.55
496.34	21487.78
496.55	21617.46
496.76	22006.24
496.97	21728.05
497.18	22108.07
497.39	22074.40
497.60	22547.89
497.81	22237.34
498.02	22613.02
498.22	22480.96
498.43	22947.98
498.64	23015.81
498.85	22997.79
499.06	23241.91
499.27	23656.99
499.48	23174.08
499.69	23589.73
499.90	23826.23
500.11	24063.96
500.32	24374.35
500.52	24152.76
500.73	24760.19
500.94	24881.84
501.15	24938.77
501.36	25086.96
501.57	24954.99
501.78	25323.95
501.99	25601.58
502.20	25672.03
502.41	25905.33
502.61	25958.82
502.82	26364.81
503.03	26325.49
503.24	26819.46
503.45	26699.37
503.66	27199.32
503.87	27261.50
504.08	27663.63
504.28	27641.84
504.49	27885.47
504.70	28102.64
504.91	28386.98
505.12	28291.13
505.33	28948.53
505.54	28984.90
505.75	29167.74
505.95	29499.68
506.16	29565.87
506.37	29573.98
506.58	30243.42
506.79	29997.25
507.00	30585.10
507.21	30476.31
507.41	30767.95
507.62	31016.32
507.83	31632.43
508.04	31391.76
508.25	32084.38
508.46	31899.82
508.67	32509.21
508.87	32459.65
509.08	33020.22
509.29	32938.79
509.50	33260.98
509.71	33521.48
509.92	33810.49
510.12	33727.01
510.33	34058.79
510.54	34121.94
510.75	34483.70
510.96	34805.72
511.17	35092.93
511.37	35183.61
511.58	35592.47
511.79	35396.68
512.00	35548.64
512.21	36146.65
512.42	36267.48
512.62	36483.42
512.83	36878.18
513.04	36859.51
513.25	37339.47
513.46	36634.15
513.66	37827.21
513.87	37508.30
514.08	37956.23
514.29	37859.32
514.50	37920.93
514.71	38500.42
514.91	38300.54
515.12	38377.30
515.33	38750.76
515.54	38742.98
515.75	39277.17
515.95	39106.37
516.16	39148.48
516.37	39736.16
516.58	39782.37
516.78	39521.46
516.99	39859.04
517.20	39887.80
517.41	39962.59
517.62	40130.28
517.82	40091.53
518.03	40664.71
518.24	40995.34
518.45	40229.07
518.66	40729.43
518.86	40535.36
519.07	40965.52
519.28	40222.02
519.49	41003.61
519.69	41052.68
519.90	41104.70
520.11	41188.50
520.32	41014.18
520.52	41359.71
520.73	40984.11
520.94	41440.48
521.15	41264.28
521.36	40713.37
521.56	41471.86
521.77	40755.32
521.98	41391.17
522.19	40856.89
522.39	41131.16
522.60	40890.97
522.81	41090.94
523.02	40715.67
523.22	41049.49
523.43	41130.67
523.64	40914.81
523.84	40857.47
524.05	41168.27
524.26	40896.13
524.47	40545.11
524.67	40626.38
524.88	40792.92
525.09	41018.93
525.30	40599.83
525.50	40452.95
525.71	40471.71
525.92	40418.47
526.13	40615.73
526.33	40375.70
526.54	39987.16
526.75	40135.03
526.95	40432.47
527.16	39544.15
527.37	39929.74
527.58	40020.26
527.78	39843.23
527.99	40030.33
528.20	40041.64
528.40	39603.29
528.61	39316.66
528.82	39673.74
529.03	39279.47
529.23	39232.45
529.44	39436.51
529.65	39315.27
529.85	39185.18
530.06	39037.40
530.27	39019.21
530.47	38553.91
530.68	39228.51
530.89	38350.59
531.09	38887.90
531.30	38599.62
531.51	38182.74
531.72	38719.55
531.92	38551.29
532.13	38572.92
532.34	38318.89
532.54	38248.19
532.75	38335.93
532.96	38100.33
533.16	38232.79
533.37	38331.83
533.58	37906.35
533.78	38187.41
533.99	38104.67
534.20	37619.30
534.40	37830.98
534.61	37810.09
534.82	37793.87
535.02	37828.11
535.23	37700.40
535.44	37772.24
535.64	37590.79
535.85	37713.18
536.06	37618.65
536.26	37481.68
536.47	37416.72
536.68	37817.22
536.88	37239.03
537.09	37732.10
537.29	37130.41
537.50	37741.11
537.71	37288.27
537.91	37461.44
538.12	37531.73
538.33	37228.47
538.53	37511.33
538.74	37472.26
538.95	37507.40
539.15	37222.24
539.36	37539.35
539.56	37710.07
539.77	37305.06
539.98	37277.62
540.18	37566.22
540.39	37348.72
540.60	37613.08
540.80	37721.62
541.01	37502.65
541.21	37530.91
541.42	37742.43
541.63	37583.50
541.83	37833.85
542.04	37775.60
542.25	37705.40
542.45	37896.19
542.66	37806.32
542.86	38066.50
543.07	37266.72
543.28	38166.27
543.48	37889.63
543.69	38168.98
543.89	37995.96
544.10	38525.90
544.31	38327.08
544.51	38253.84
544.72	38539.66
544.92	38363.94
545.13	38756.66
545.33	38744.54
545.54	38514.35
545.75	38858.24
545.95	38521.47
546.16	38796.47
546.36	39193.21
546.57	38563.01
546.78	38123.02
546.98	38761.58
547.19	38207.31
547.39	39033.96
547.60	39306.09
547.80	39893.28
548.01	40013.79
548.22	39639.17
548.42	39882.06
548.63	40103.73
548.83	40002.89
549.04	40297.47
549.24	39995.52
549.45	40339.58
549.65	40787.84
549.86	40255.77
550.07	40645.63
550.27	41062.92
550.48	41143.77
550.68	41124.36
550.89	41226.35
551.09	41559.59
551.30	41406.08
551.50	41900.38
551.71	41726.95
551.91	41824.11
552.12	42061.26
552.33	42388.28
552.53	42102.06
552.74	42843.18
552.94	42966.63
553.15	42896.10
553.35	43327.97
553.56	43004.64
553.76	43640.17
553.97	43295.37
554.17	43636.81
554.38	44334.02
554.58	43810.48
554.79	44491.38
554.99	44148.96
555.20	44382.92
555.40	44993.96
555.61	44850.19
555.81	44774.74
556.02	45767.35
556.22	45714.19
556.43	45575.09
556.63	45915.79
556.84	46068.57
557.04	46655.60
557.25	46245.35
557.45	46886.03
557.66	46956.40
557.86	46859.49
558.07	47539.42
558.27	47353.05
558.48	47461.43
558.68	47688.92
558.89	47903.79
559.09	48119.07
559.30	48015.36
559.50	48365.89
559.71	48154.30
559.91	49131.34
560.12	49064.25
560.32	49201.63
560.53	49591.56
560.73	49417.73
560.94	50014.02
561.14	49665.04
561.35	50548.62
561.55	50307.29
561.76	50737.44
561.96	50280.66
562.17	50954.28
562.37	51289.41
562.57	51213.14
562.78	51317.84
562.98	51725.46
563.19	51822.54
563.39	52085.99
563.60	52204.36
563.80	51835.15
564.01	52747.73
564.21	52582.01
564.42	52589.30
564.62	52945.15
564.82	53422.08
565.03	53055.99
565.23	53354.09
565.44	53807.76
565.64	53684.88
565.85	54188.52
566.05	54056.87
566.25	54512.42
566.46	54240.78
566.66	54653.73
566.87	54662.74
567.07	54795.53
567.28	55070.21
567.48	55575.07
567.68	54934.14
567.89	55989.42
568.09	55575.32
568.30	55703.77
568.50	56170.21
568.71	55970.82
568.91	56416.95
569.11	55901.85
569.32	56181.60
569.52	56292.03
569.73	55817.14
569.93	56455.78
570.13	56294.48
570.34	56300.95
570.54	56965.40
570.75	56686.96
570.95	56799.68
571.15	56568.01
571.36	57266.20
571.56	56721.69
571.77	56646.65
571.97	56410.97
572.17	57304.13
572.38	57189.20
572.58	57437.41
572.79	57122.03
572.99	57137.26
573.19	57127.68
573.40	56971.71
573.60	57128.50
573.81	57040.76
574.01	57311.59
574.21	57297.09
574.42	57329.28
574.62	57128.83
574.82	57598.06
575.03	57398.09
575.23	57756.08
575.43	57274.80
575.64	57077.79
575.84	57581.59
576.05	56972.36
576.25	57210.91
576.45	56919.44
576.66	57534.49
576.86	56839.90
577.06	57161.27
577.27	56934.60
577.47	56842.60
577.67	56689.66
577.88	56202.08
578.08	56786.16
578.28	56910.18
578.49	56648.04
578.69	56711.37
578.89	56410.56
579.10	56427.52
579.30	57028.39
579.50	56353.71
579.71	55846.72
579.91	56322.42
580.11	55949.52
580.32	55673.62
580.52	55553.36
580.72	56019.56
580.93	55232.65
581.13	55287.13
581.33	55665.67
581.54	55035.97
581.74	55123.86
581.94	55211.19
582.15	55455.64
582.35	54867.21
582.55	54853.70
582.76	54279.04
582.96	54720.09
583.16	54153.13
583.37	54351.21
583.57	53860.10
583.77	54362.59
583.97	53126.28
584.18	54187.45
584.38	53770.98
584.58	53376.78
584.79	53604.93
584.99	53289.62
585.19	53002.17
585.40	52885.35
585.60	53069.59
585.80	52422.76
586.00	52683.67
586.21	52491.16
586.41	52297.91
586.61	52520.98
586.82	52171.35
587.02	51800.50
587.22	51921.82
587.42	51284.41
587.63	51770.68
587.83	51011.54
588.03	51266.88
588.23	50748.09
588.44	51051.19
588.64	50580.73
588.84	50667.07
589.05	50670.68
589.25	50592.61
589.45	50402.48
589.65	50235.77
589.86	50352.02
590.06	50090.37
590.26	49746.55
590.46	49935.05
590.67	49094.32
590.87	49735.99
591.07	49713.54
591.27	49066.22
591.48	49325.41
591.68	48625.00
591.88	49419.04
592.08	48586.17
592.29	49022.31
592.49	48793.43
592.69	48902.63
592.89	48418.90
593.10	48439.54
593.30	48168.47
593.50	48671.12
593.70	47642.55
593.90	48309.78
594.11	47862.59
594.31	47882.41
594.51	47826.62
594.71	47809.26
594.92	47805.16
595.12	47366.65
595.32	47314.06
595.52	47406.87
595.72	46708.84
595.93	47278.26
596.13	46941.25
596.33	46608.57
596.53	47099.68
596.73	46758.57
596.94	46508.31
597.14	46815.50
597.34	46448.91
597.54	46678.29
597.74	46231.99
597.95	46173.09
598.15	45964.20
598.35	46041.86
598.55	46076.68
598.75	45894.82
598.96	46346.02
599.16	45907.84
599.36	45891.29
599.56	45736.79
599.76	45585.57
599.97	45975.26
600.17	45624.65
600.37	45932.58
600.57	45138.21
600.77	45876.14
600.97	45391.67
601.18	45903.99
601.38	45385.94
601.58	45603.10
601.78	45320.40
601.98	45102.91
602.18	45313.11
602.39	45509.88
602.59	45175.32
602.79	45114.54
602.99	44917.61
603.19	45001.33
603.39	44807.51
603.60	44834.21
603.80	44927.93
604.00	44706.26
604.20	44846.26
604.40	45031.80
604.60	44777.69
604.80	44740.58
605.01	44733.37
605.21	44672.10
605.41	44531.77
605.61	44304.28
605.81	44612.79
606.01	44996.41
606.21	44658.33
606.42	44899.58
606.62	44599.19
606.82	44971.67
607.02	44590.83
607.22	44718.13
607.42	44893.44
607.62	44430.27
607.82	44625.08
