SpectraSuite Data File
++++++++++++++++++++++++++++++++++++
Date: Tue Sep 20 12:11:20 EDT 2022
User: Laboratoire
Dark Spectrum Present: No
Reference Spectrum Present: No
Number of Sampled Component Spectra: 1
Spectrometers: FLMT00174
Integration Time (usec): 15000 (FLMT00174)
Spectra Averaged: 25 (FLMT00174)
Boxcar Smoothing: 0 (FLMT00174)
Correct for Electrical Dark: No (FLMT00174)
Strobe/Lamp Enabled: No (FLMT00174)
Correct for Detector Non-linearity: No (FLMT00174)
Correct for Stray Light: No (FLMT00174)
Number of Pixels in Processed Spectrum: 3648
>>>>>Begin Processed Spectral Data<<<<<
345.74	3164.52
345.96	3164.52
346.18	3164.52
346.39	3180.25
346.61	3220.06
346.83	3230.06
347.05	3218.75
347.27	3202.70
347.49	3218.18
347.71	3225.22
347.93	3231.45
348.15	3232.84
348.36	3223.18
348.58	3231.04
348.80	3214.16
349.02	3225.71
349.24	3226.29
349.46	3302.23
349.68	3336.47
349.90	3320.74
350.11	3305.91
350.33	3317.55
350.55	3296.66
350.77	3330.90
350.99	3299.03
351.21	3321.56
351.43	3298.70
351.65	3329.51
351.86	3308.70
352.08	3328.52
352.30	3293.38
352.52	3334.18
352.74	3302.72
352.96	3309.44
353.18	3318.94
353.39	3310.91
353.61	3303.95
353.83	3337.12
354.05	3329.01
354.27	3329.75
354.49	3314.10
354.70	3320.41
354.92	3316.64
355.14	3315.66
355.36	3301.82
355.58	3329.92
355.80	3307.88
356.02	3319.84
356.23	3317.14
356.45	3308.21
356.67	3321.07
356.89	3333.60
357.11	3315.17
357.33	3325.00
357.54	3319.76
357.76	3303.13
357.98	3305.09
358.20	3317.22
358.42	3297.15
358.63	3306.73
358.85	3324.34
359.07	3332.21
359.29	3306.65
359.51	3312.71
359.73	3313.45
359.94	3321.56
360.16	3296.98
360.38	3311.32
360.60	3299.61
360.82	3308.04
361.03	3318.20
361.25	3327.54
361.47	3336.14
361.69	3328.11
361.91	3302.06
362.12	3331.96
362.34	3304.52
362.56	3329.26
362.78	3317.14
363.00	3333.03
363.21	3308.45
363.43	3334.26
363.65	3305.01
363.87	3340.48
364.09	3320.58
364.30	3318.53
364.52	3306.81
364.74	3325.74
364.96	3326.88
365.17	3317.87
365.39	3299.85
365.61	3297.48
365.83	3299.36
366.05	3309.76
366.26	3307.63
366.48	3312.38
366.70	3327.79
366.92	3340.89
367.13	3318.53
367.35	3342.94
367.57	3325.16
367.79	3339.34
368.01	3321.48
368.22	3340.40
368.44	3299.36
368.66	3327.13
368.88	3335.49
369.09	3321.56
369.31	3342.37
369.53	3322.71
369.75	3312.14
369.96	3336.63
370.18	3306.90
370.40	3346.30
370.62	3315.74
370.83	3322.05
371.05	3347.04
371.27	3334.99
371.49	3328.36
371.70	3337.04
371.92	3344.33
372.14	3343.51
372.36	3331.80
372.57	3355.06
372.79	3349.49
373.01	3331.14
373.22	3336.39
373.44	3327.79
373.66	3330.00
373.88	3339.25
374.09	3336.88
374.31	3354.74
374.53	3323.36
374.75	3377.51
374.96	3338.11
375.18	3344.50
375.40	3332.21
375.61	3339.42
375.83	3326.31
376.05	3336.96
376.27	3355.31
376.48	3329.01
376.70	3345.56
376.92	3335.81
377.13	3335.40
377.35	3346.79
377.57	3326.64
377.79	3338.35
378.00	3346.05
378.22	3369.89
378.44	3307.72
378.65	3372.35
378.87	3349.58
379.09	3366.70
379.30	3329.51
379.52	3370.96
379.74	3350.39
379.96	3343.92
380.17	3336.80
380.39	3338.84
380.61	3344.58
380.82	3359.00
381.04	3354.57
381.26	3353.02
381.47	3357.93
381.69	3367.35
381.91	3351.79
382.12	3371.53
382.34	3366.37
382.56	3354.57
382.77	3348.43
382.99	3355.56
383.21	3352.28
383.42	3385.95
383.64	3359.49
383.86	3365.88
384.07	3373.00
384.29	3368.74
384.51	3348.59
384.72	3364.24
384.94	3365.30
385.16	3366.12
385.37	3381.44
385.59	3368.74
385.81	3380.95
386.02	3380.05
386.24	3393.81
386.46	3381.44
386.67	3389.22
386.89	3417.81
387.11	3417.16
387.32	3397.01
387.54	3398.32
387.76	3406.18
387.97	3422.89
388.19	3426.99
388.40	3428.30
388.62	3398.15
388.84	3443.21
389.05	3430.02
389.27	3429.86
389.49	3440.51
389.70	3424.04
389.92	3440.26
390.14	3428.63
390.35	3446.16
390.57	3453.12
390.78	3447.88
391.00	3439.77
391.22	3444.19
391.43	3443.54
391.65	3456.40
391.86	3483.51
392.08	3490.15
392.30	3453.20
392.51	3466.31
392.73	3498.09
392.95	3477.78
393.16	3451.73
393.38	3486.79
393.59	3484.66
393.81	3502.44
394.03	3474.42
394.24	3474.91
394.46	3489.66
394.67	3501.13
394.89	3481.63
395.11	3503.34
395.32	3516.69
395.54	3508.33
395.75	3512.35
395.97	3495.23
396.19	3486.87
396.40	3519.48
396.62	3505.63
396.83	3499.98
397.05	3507.52
397.26	3514.97
397.48	3477.86
397.70	3519.23
397.91	3528.73
398.13	3492.36
398.34	3510.05
398.56	3520.95
398.78	3515.05
398.99	3560.76
399.21	3512.18
399.42	3541.84
399.64	3508.42
399.85	3516.20
400.07	3542.82
400.29	3559.86
400.50	3537.74
400.72	3560.19
400.93	3543.15
401.15	3548.64
401.36	3549.29
401.58	3577.06
401.79	3567.89
402.01	3570.84
402.23	3570.84
402.44	3605.49
402.66	3586.57
402.87	3615.16
403.09	3595.58
403.30	3618.43
403.52	3592.55
403.73	3599.76
403.95	3604.51
404.16	3626.62
404.38	3623.84
404.60	3612.86
404.81	3640.31
405.03	3668.16
405.24	3667.42
405.46	3693.22
405.67	3682.74
405.89	3698.55
406.10	3687.08
406.32	3703.06
406.53	3725.75
406.75	3754.09
406.96	3740.25
407.18	3727.22
407.39	3744.34
407.61	3773.42
407.82	3781.12
408.04	3816.35
408.25	3797.26
408.47	3830.44
408.68	3834.62
408.90	3851.82
409.12	3859.36
409.33	3872.95
409.55	3858.46
409.76	3889.26
409.98	3887.37
410.19	3902.77
410.41	3941.44
410.62	3948.16
410.84	3939.88
411.05	3961.26
411.27	3974.70
411.48	3965.20
411.70	3987.48
411.91	4013.53
412.12	4009.51
412.34	4006.24
412.55	4020.57
412.77	4019.83
412.98	4050.96
413.20	4049.90
413.41	4057.19
413.63	4054.81
413.84	4058.99
414.06	4101.34
414.27	4081.11
414.49	4098.48
414.70	4060.22
414.92	4115.35
415.13	4090.61
415.35	4105.93
415.56	4127.97
415.78	4110.36
415.99	4105.44
416.21	4120.27
416.42	4134.11
416.63	4162.95
416.85	4141.57
417.06	4118.30
417.28	4119.20
417.49	4152.46
417.71	4137.55
417.92	4108.39
418.14	4134.77
418.35	4147.63
418.57	4146.15
418.78	4134.36
418.99	4140.58
419.21	4146.56
419.42	4143.45
419.64	4135.59
419.85	4146.73
420.07	4166.88
420.28	4140.99
420.50	4145.33
420.71	4157.05
420.92	4155.08
421.14	4165.24
421.35	4133.29
421.57	4169.34
421.78	4177.94
422.00	4181.46
422.21	4183.02
422.42	4166.47
422.64	4180.31
422.85	4205.87
423.07	4221.52
423.28	4202.51
423.50	4225.78
423.71	4226.68
423.92	4279.68
424.14	4244.78
424.35	4265.10
424.57	4273.87
424.78	4301.39
424.99	4286.15
425.21	4310.16
425.42	4308.11
425.64	4311.06
425.85	4332.44
426.06	4323.02
426.28	4369.38
426.49	4379.29
426.71	4377.08
426.92	4380.28
427.13	4414.77
427.35	4462.77
427.56	4493.33
427.78	4470.31
427.99	4510.69
428.20	4528.88
428.42	4553.29
428.63	4581.88
428.84	4547.31
429.06	4591.14
429.27	4632.26
429.49	4630.29
429.70	4677.15
429.91	4693.86
430.13	4707.87
430.34	4736.71
430.56	4766.69
430.77	4819.28
430.98	4773.08
431.20	4842.54
431.41	4907.10
431.62	4897.84
431.84	4909.31
432.05	4965.75
432.26	4978.04
432.48	4970.34
432.69	5043.33
432.91	5048.65
433.12	5101.98
433.33	5125.25
433.55	5203.23
433.76	5205.94
433.97	5206.67
434.19	5261.40
434.40	5342.41
434.61	5364.70
434.83	5396.73
435.04	5385.09
435.25	5441.94
435.47	5454.81
435.68	5444.98
435.89	5567.53
436.11	5565.56
436.32	5603.49
436.53	5629.87
436.75	5634.04
436.96	5687.37
437.17	5684.26
437.39	5737.18
437.60	5789.53
437.81	5835.15
438.03	5835.73
438.24	5867.76
438.45	5942.80
438.67	5927.97
438.88	5977.28
439.09	6034.63
439.31	6022.42
439.52	6069.03
439.73	6058.96
439.94	6013.57
440.16	6095.00
440.37	6068.79
440.58	6155.62
440.80	6149.31
441.01	6106.96
441.22	6281.12
441.44	6233.36
441.65	6188.96
441.86	6216.81
442.08	6246.55
442.29	6226.23
442.50	6267.11
442.71	6239.83
442.93	6300.94
443.14	6248.43
443.35	6314.62
443.57	6240.82
443.78	6302.58
443.99	6308.48
444.20	6239.42
444.42	6311.43
444.63	6263.67
444.84	6343.21
445.06	6367.05
445.27	6261.05
445.48	6245.40
445.69	6290.87
445.91	6305.61
446.12	6248.43
446.33	6282.10
446.54	6362.88
446.76	6272.27
446.97	6289.97
447.18	6285.63
447.39	6325.93
447.61	6330.52
447.82	6339.86
448.03	6314.87
448.25	6308.24
448.46	6340.92
448.67	6380.24
448.88	6282.92
449.10	6369.67
449.31	6354.03
449.52	6348.13
449.73	6333.55
449.95	6444.71
450.16	6341.33
450.37	6429.15
450.58	6524.50
450.79	6350.91
451.01	6404.65
451.22	6368.28
451.43	6388.76
451.64	6425.71
451.86	6448.07
452.07	6453.15
452.28	6487.23
452.49	6575.45
452.71	6506.40
452.92	6479.94
453.13	6531.14
453.34	6586.10
453.55	6638.12
453.77	6660.24
453.98	6635.75
454.19	6577.58
454.40	6651.88
454.62	6693.34
454.83	6647.30
455.04	6735.93
455.25	6667.53
455.46	6907.63
455.68	6808.02
455.89	6813.76
456.10	6843.98
456.31	6874.05
456.52	6935.90
456.74	6918.86
456.95	7090.31
457.16	7022.32
457.37	7122.67
457.58	7130.78
457.80	7078.68
458.01	7115.22
458.22	7393.58
458.43	7261.11
458.64	7378.09
458.86	7260.70
459.07	7370.56
459.28	7375.88
459.49	7563.64
459.70	7695.78
459.91	7628.36
460.13	7625.82
460.34	7756.39
460.55	7705.03
460.76	7826.93
460.97	7892.87
461.19	7901.80
461.40	8154.85
461.61	8052.61
461.82	8124.29
462.03	8212.85
462.24	8253.48
462.46	8273.63
462.67	8333.02
462.88	8489.90
463.09	8475.23
463.30	8677.08
463.51	8610.81
463.72	8816.26
463.94	8863.04
464.15	8902.93
464.36	8883.27
464.57	9195.22
464.78	9249.36
464.99	9295.32
465.20	9276.15
465.42	9505.11
465.63	9543.70
465.84	9586.46
466.05	9723.02
466.26	9840.08
466.47	9983.44
466.68	9946.90
466.90	10183.48
467.11	10182.09
467.32	10375.91
467.53	10536.39
467.74	10397.87
467.95	10601.76
468.16	10763.63
468.37	10936.73
468.59	10946.31
468.80	11194.03
469.01	11079.18
469.22	11287.17
469.43	11616.82
469.64	11531.21
469.85	11714.71
470.06	11770.25
470.28	11982.26
470.49	11792.86
470.70	12086.29
470.91	12346.63
471.12	12250.46
471.33	12551.67
471.54	12501.95
471.75	12621.14
471.96	12941.61
472.17	12905.81
472.39	13231.68
472.60	12967.00
472.81	13323.27
473.02	13215.79
473.23	13549.20
473.44	13622.60
473.65	13607.11
473.86	13670.36
474.07	13809.78
474.28	13912.75
474.49	14271.15
474.71	14205.94
474.92	14339.22
475.13	14304.82
475.34	14403.94
475.55	14436.38
475.76	14538.45
475.97	14897.17
476.18	14789.12
476.39	15021.20
476.60	15114.66
476.81	15086.65
477.02	15261.55
477.23	15241.47
477.44	15173.32
477.65	15374.02
477.87	15511.56
478.08	15583.73
478.29	15600.85
478.50	15861.03
478.71	15648.04
478.92	15838.58
479.13	15816.05
479.34	15877.33
479.55	15976.94
479.76	15895.43
479.97	15995.05
480.18	16348.52
480.39	16061.15
480.60	16371.54
480.81	16362.94
481.02	16320.10
481.23	16337.63
481.44	16594.12
481.65	16655.88
481.86	16834.47
482.07	16372.61
482.28	17074.24
482.49	16751.16
482.71	16760.74
482.92	16912.04
483.13	17050.08
483.34	16889.76
483.55	16958.33
483.76	16929.57
483.97	17122.58
484.18	17121.76
484.39	17205.48
484.60	17068.34
484.81	17394.63
485.02	17207.12
485.23	17449.19
485.44	17475.40
485.65	17558.38
485.86	17351.21
486.07	17610.73
486.28	17572.15
486.49	17704.03
486.70	17719.03
486.91	17900.48
487.12	17744.50
487.33	17708.05
487.54	17999.84
487.75	18029.74
487.96	18026.14
488.17	17947.99
488.38	18101.18
488.59	18201.53
488.80	18249.29
489.01	18251.83
489.22	18475.14
489.43	18425.74
489.64	18316.87
489.85	18705.08
490.06	18368.64
490.26	18701.56
490.47	18561.48
490.68	18868.18
490.89	19057.91
491.10	18748.99
491.31	19009.90
491.52	19251.89
491.73	19117.38
491.94	19127.37
492.15	19280.15
492.36	19434.73
492.57	19447.43
492.78	19470.20
492.99	19603.65
493.20	19843.75
493.41	19789.93
493.62	19905.52
493.83	19915.27
494.04	20038.47
494.25	20211.81
494.46	20286.28
494.67	20162.25
494.88	20436.43
495.08	20525.48
495.29	20634.19
495.50	20862.58
495.71	20787.62
495.92	21090.31
496.13	21093.10
496.34	21034.69
496.55	21279.71
496.76	21614.18
496.97	21359.66
497.18	21697.08
497.39	21710.76
497.60	22142.80
497.81	21913.59
498.02	22223.49
498.22	22090.29
498.43	22541.50
498.64	22595.65
498.85	22663.89
499.06	22813.31
499.27	23229.78
499.48	22834.52
499.69	23234.12
499.90	23399.85
500.11	23670.26
500.32	24020.87
500.52	23797.40
500.73	24327.25
500.94	24443.08
501.15	24559.08
501.36	24660.25
501.57	24623.22
501.78	24971.87
501.99	25306.59
502.20	25282.91
502.41	25494.84
502.61	25568.56
502.82	25992.90
503.03	25976.03
503.24	26409.05
503.45	26348.18
503.66	26772.52
503.87	26860.09
504.08	27263.30
504.28	27177.61
504.49	27520.60
504.70	27667.40
504.91	27951.82
505.12	27963.05
505.33	28521.98
505.54	28571.79
505.75	28792.31
505.95	29192.65
506.16	29174.30
506.37	29161.03
506.58	29841.03
506.79	29601.59
507.00	30257.35
507.21	30150.85
507.41	30356.06
507.62	30643.67
507.83	31233.49
508.04	31007.31
508.25	31645.46
508.46	31505.95
508.67	32097.98
508.87	32037.03
509.08	32595.39
509.29	32618.98
509.50	32858.02
509.71	33114.75
509.92	33347.32
510.12	33140.72
510.33	33551.38
510.54	33641.16
510.75	34007.34
510.96	34326.17
511.17	34662.85
511.37	34745.67
511.58	35149.94
511.79	34965.05
512.00	35094.65
512.21	35588.45
512.42	35799.97
512.62	36088.49
512.83	36369.71
513.04	36322.45
513.25	36785.12
513.46	36193.83
513.66	37269.18
513.87	36985.82
514.08	37414.42
514.29	37281.22
514.50	37491.02
514.71	37858.34
514.91	37737.18
515.12	37821.48
515.33	38253.84
515.54	38224.76
515.75	38761.17
515.95	38526.96
516.16	38572.26
516.37	39137.91
516.58	39204.18
516.78	38891.99
516.99	39242.85
517.20	39136.68
517.41	39231.63
517.62	39598.21
517.82	39428.81
518.03	39933.34
518.24	40291.00
518.45	39514.98
518.66	39974.06
518.86	39675.79
519.07	40292.80
519.28	39478.53
519.49	40266.34
519.69	40267.33
519.90	40305.66
520.11	40437.22
520.32	40276.42
520.52	40622.36
520.73	40149.20
520.94	40577.88
521.15	40454.67
521.36	39903.85
521.56	40653.57
521.77	39860.84
521.98	40553.71
522.19	39896.89
522.39	40258.97
522.60	39987.49
522.81	40198.43
523.02	39879.69
523.22	40156.16
523.43	40229.97
523.64	40047.05
523.84	39963.16
524.05	40282.64
524.26	40093.58
524.47	39673.82
524.67	39746.81
524.88	39830.45
525.09	40062.53
525.30	39596.08
525.50	39503.35
525.71	39499.17
525.92	39464.11
526.13	39683.90
526.33	39333.86
526.54	39043.87
526.75	39291.59
526.95	39485.98
527.16	38550.64
527.37	39009.63
527.58	38988.41
527.78	38868.07
527.99	39031.74
528.20	39117.76
528.40	38596.51
528.61	38235.49
528.82	38615.68
529.03	38372.87
529.23	38139.98
529.44	38474.45
529.65	38241.88
529.85	38163.49
530.06	38003.01
530.27	37993.83
530.47	37569.66
530.68	38241.47
530.89	37462.10
531.09	37872.35
531.30	37563.43
531.51	37185.46
531.72	37664.03
531.92	37542.54
532.13	37650.51
532.34	37310.80
532.54	37342.01
532.75	37324.23
532.96	37097.32
533.16	37296.79
533.37	37300.97
533.58	37013.02
533.78	37193.41
533.99	37076.75
534.20	36665.44
534.40	36753.75
534.61	36804.37
534.82	36813.79
535.02	36805.68
535.23	36793.72
535.44	36782.26
535.64	36620.06
535.85	36690.67
536.06	36621.37
536.26	36488.99
536.47	36438.85
536.68	36868.76
536.88	36245.77
537.09	36762.84
537.29	36247.65
537.50	36870.48
537.71	36435.99
537.91	36554.44
538.12	36615.63
538.33	36338.17
538.53	36548.13
538.74	36593.68
538.95	36588.11
539.15	36380.85
539.36	36518.48
539.56	36707.63
539.77	36326.87
539.98	36471.29
540.18	36635.38
540.39	36364.88
540.60	36527.41
540.80	36734.99
541.01	36636.52
541.21	36683.05
541.42	36793.40
541.63	36720.98
541.83	36885.23
542.04	36875.23
542.25	36800.85
542.45	36965.26
542.66	36917.59
542.86	37106.08
543.07	36363.16
543.28	37181.12
543.48	37042.76
543.69	37306.62
543.89	37146.55
544.10	37588.83
544.31	37381.57
544.51	37329.23
544.72	37687.38
544.92	37494.87
545.13	37837.04
545.33	37842.04
545.54	37618.24
545.75	37816.64
545.95	37621.60
546.16	37784.12
546.36	38260.15
546.57	37685.82
546.78	37215.11
546.98	37755.12
547.19	37348.97
547.39	38216.90
547.60	38480.02
547.80	38985.87
548.01	39099.25
548.22	38851.52
548.42	38977.76
548.63	39337.88
548.83	39162.65
549.04	39433.56
549.24	39203.28
549.45	39510.31
549.65	39876.49
549.86	39419.96
550.07	39755.50
550.27	40174.51
550.48	40394.22
550.68	40234.15
550.89	40343.35
551.09	40825.36
551.30	40664.14
551.50	40995.01
551.71	40808.97
551.91	40892.78
552.12	41168.02
552.33	41544.27
552.53	41202.43
552.74	42006.05
552.94	42148.92
553.15	41974.76
553.35	42455.87
553.56	42180.95
553.76	42748.23
553.97	42412.45
554.17	42736.60
554.38	43477.15
554.58	43046.26
554.79	43667.12
554.99	43278.09
555.20	43569.22
555.40	44101.53
555.61	43976.03
555.81	43870.52
556.02	44859.44
556.22	44696.02
556.43	44728.05
556.63	45047.61
556.84	45107.25
557.04	45876.96
557.25	45361.69
557.45	45905.87
557.66	45970.18
557.86	45962.23
558.07	46724.57
558.27	46436.79
558.48	46552.95
558.68	46767.33
558.89	46998.10
559.09	47093.70
559.30	47124.83
559.50	47495.34
559.71	47353.13
559.91	48247.44
560.12	48034.70
560.32	48217.54
560.53	48534.89
560.73	48381.46
560.94	49012.64
561.14	48729.61
561.35	49555.44
561.55	49410.36
561.76	49837.57
561.96	49388.90
562.17	50065.95
562.37	50391.75
562.57	50278.12
562.78	50351.52
562.98	50785.61
563.19	50901.20
563.39	51181.03
563.60	51310.22
563.80	50902.84
564.01	51684.18
564.21	51516.16
564.42	51501.66
564.62	51881.11
564.82	52345.59
565.03	52166.27
565.23	52384.66
565.44	52802.37
565.64	52800.81
565.85	53267.75
566.05	53141.76
566.25	53446.17
566.46	53195.99
566.66	53546.76
566.87	53706.34
567.07	53696.35
567.28	54038.52
567.48	54451.72
567.68	53829.47
567.89	54965.02
568.09	54479.41
568.30	54604.58
568.50	55050.71
568.71	54917.84
568.91	55238.47
569.11	54865.08
569.32	54957.24
569.52	55223.31
569.73	54590.74
569.93	55364.62
570.13	55252.23
570.34	55141.15
570.54	55714.99
570.75	55499.63
570.95	55494.55
571.15	55343.49
571.36	56065.68
571.56	55417.71
571.77	55430.73
571.97	55145.49
572.17	56085.26
572.38	55916.43
572.58	56202.00
572.79	55865.80
572.99	55923.31
573.19	55817.63
573.40	55718.51
573.60	55767.34
573.81	55765.62
574.01	55986.14
574.21	55932.89
574.42	55999.41
574.62	55650.60
574.82	56354.94
575.03	55820.01
575.23	56367.31
575.43	55868.10
575.64	55717.78
575.84	56355.18
576.05	55706.72
576.25	55910.45
576.45	55557.05
576.66	56072.32
576.86	55426.80
577.06	55734.32
577.27	55411.56
577.47	55395.92
577.67	55217.33
577.88	54831.99
578.08	55350.37
578.28	55554.59
578.49	55240.19
578.69	55373.72
578.89	54919.31
579.10	54976.33
579.30	55490.94
579.50	54827.89
579.71	54336.79
579.91	54832.72
580.11	54523.65
580.32	54126.83
580.52	54047.70
580.72	54487.93
580.93	53778.76
581.13	53704.21
581.33	54087.18
581.54	53562.57
581.74	53612.05
581.94	53677.34
582.15	53815.79
582.35	53257.59
582.55	53263.57
582.76	52706.28
582.96	53231.38
583.16	52615.84
583.37	52797.04
583.57	52318.47
583.77	52789.34
583.97	51569.98
584.18	52553.58
584.38	52192.81
584.58	51747.26
584.79	51994.57
584.99	51781.74
585.19	51444.65
585.40	51359.70
585.60	51501.91
585.80	50872.04
586.00	51086.25
586.21	50934.54
586.41	50741.05
586.61	50876.87
586.82	50502.66
587.02	50150.25
587.22	50290.74
587.42	49654.07
587.63	50162.05
587.83	49420.93
588.03	49658.49
588.23	49262.17
588.44	49412.65
588.64	48984.79
588.84	49136.67
589.05	49070.97
589.25	48899.43
589.45	48827.51
589.65	48630.41
589.86	48766.07
590.06	48552.10
590.26	48216.23
590.46	48420.37
590.67	47645.09
590.87	48221.88
591.07	48241.62
591.27	47565.96
591.48	47772.39
591.68	47099.43
591.88	47861.77
592.08	47107.21
592.29	47429.32
592.49	47329.54
592.69	47412.52
592.89	46841.22
593.10	46854.74
593.30	46602.27
593.50	47161.03
593.70	46157.61
593.90	46816.57
594.11	46473.33
594.31	46406.81
594.51	46501.01
594.71	46338.82
594.92	46192.34
595.12	45888.59
595.32	45782.51
595.52	46026.38
595.72	45322.70
595.93	45917.02
596.13	45469.90
596.33	45244.79
596.53	45549.28
596.73	45354.07
596.94	45074.24
597.14	45386.02
597.34	45117.82
597.54	45313.85
597.74	44892.38
597.95	44873.45
598.15	44708.63
598.35	44763.68
598.55	44732.31
598.75	44503.67
598.96	44917.53
599.16	44542.66
599.36	44520.71
599.56	44342.46
599.76	44133.81
599.97	44670.95
600.17	44324.11
600.37	44477.13
600.57	43719.95
600.77	44472.62
600.97	44018.96
601.18	44485.81
601.38	44148.47
601.58	44305.35
601.78	43943.35
601.98	43794.01
602.18	43906.98
602.39	44052.38
602.59	43880.27
602.79	43699.80
602.99	43588.23
603.19	43576.35
603.39	43396.13
603.60	43432.09
603.80	43514.75
604.00	43481.49
604.20	43538.10
604.40	43738.22
604.60	43495.09
604.80	43451.43
605.01	43550.22
605.21	43295.62
605.41	43144.23
605.61	42985.80
605.81	43324.12
606.01	43668.10
606.21	43293.73
606.42	43671.30
606.62	43295.78
606.82	43689.32
607.02	43278.09
607.22	43446.02
607.42	43694.64
607.62	43194.45
607.82	43277.27
