SpectraSuite Data File
++++++++++++++++++++++++++++++++++++
Date: Tue Sep 20 12:05:21 EDT 2022
User: Laboratoire
Dark Spectrum Present: No
Reference Spectrum Present: No
Number of Sampled Component Spectra: 1
Spectrometers: FLMT00174
Integration Time (usec): 15000 (FLMT00174)
Spectra Averaged: 25 (FLMT00174)
Boxcar Smoothing: 0 (FLMT00174)
Correct for Electrical Dark: No (FLMT00174)
Strobe/Lamp Enabled: No (FLMT00174)
Correct for Detector Non-linearity: No (FLMT00174)
Correct for Stray Light: No (FLMT00174)
Number of Pixels in Processed Spectrum: 3648
>>>>>Begin Processed Spectral Data<<<<<
345.74	3179.51
345.96	3179.51
346.18	3179.51
346.39	3177.22
346.61	3202.94
346.83	3223.99
347.05	3217.69
347.27	3213.43
347.49	3222.77
347.71	3218.34
347.93	3222.52
348.15	3234.81
348.36	3223.83
348.58	3236.53
348.80	3224.81
349.02	3222.52
349.24	3223.67
349.46	3291.74
349.68	3311.07
349.90	3322.46
350.11	3319.92
350.33	3321.81
350.55	3305.99
350.77	3333.77
350.99	3312.14
351.21	3339.25
351.43	3304.52
351.65	3341.06
351.86	3311.32
352.08	3339.34
352.30	3305.83
352.52	3334.26
352.74	3310.58
352.96	3307.80
353.18	3329.42
353.39	3316.97
353.61	3316.07
353.83	3332.45
354.05	3314.51
354.27	3336.63
354.49	3322.71
354.70	3318.20
354.92	3303.95
355.14	3321.72
355.36	3325.16
355.58	3321.23
355.80	3324.26
356.02	3337.21
356.23	3315.50
356.45	3336.14
356.67	3327.62
356.89	3337.78
357.11	3320.17
357.33	3338.35
357.54	3294.69
357.76	3322.95
357.98	3300.59
358.20	3334.75
358.42	3314.51
358.63	3321.56
358.85	3324.10
359.07	3326.97
359.29	3312.22
359.51	3309.44
359.73	3310.25
359.94	3342.78
360.16	3327.95
360.38	3322.21
360.60	3285.68
360.82	3339.58
361.03	3335.57
361.25	3336.80
361.47	3340.40
361.69	3336.71
361.91	3320.25
362.12	3339.91
362.34	3315.58
362.56	3337.70
362.78	3320.41
363.00	3350.39
363.21	3323.69
363.43	3340.65
363.65	3304.11
363.87	3323.12
364.09	3340.65
364.30	3318.28
364.52	3325.25
364.74	3344.17
364.96	3325.90
365.17	3337.21
365.39	3334.34
365.61	3329.67
365.83	3328.60
366.05	3331.47
366.26	3308.21
366.48	3325.25
366.70	3332.95
366.92	3344.09
367.13	3336.22
367.35	3336.30
367.57	3348.18
367.79	3326.31
368.01	3344.66
368.22	3347.94
368.44	3330.24
368.66	3333.03
368.88	3332.62
369.09	3335.81
369.31	3342.45
369.53	3341.06
369.75	3319.27
369.96	3342.94
370.18	3322.95
370.40	3353.75
370.62	3330.41
370.83	3336.80
371.05	3368.50
371.27	3346.14
371.49	3331.96
371.70	3337.53
371.92	3333.11
372.14	3356.29
372.36	3331.31
372.57	3365.80
372.79	3368.34
373.01	3343.68
373.22	3339.50
373.44	3335.40
373.66	3337.62
373.88	3353.10
374.09	3334.83
374.31	3347.28
374.53	3332.78
374.75	3359.32
374.96	3346.14
375.18	3355.31
375.40	3352.36
375.61	3349.74
375.83	3340.16
376.05	3353.10
376.27	3354.65
376.48	3351.30
376.70	3353.51
376.92	3361.21
377.13	3356.54
377.35	3333.36
377.57	3354.00
377.79	3358.26
378.00	3346.14
378.22	3361.29
378.44	3338.84
378.65	3372.76
378.87	3346.95
379.09	3371.45
379.30	3343.76
379.52	3365.14
379.74	3368.66
379.96	3359.41
380.17	3357.44
380.39	3353.59
380.61	3360.55
380.82	3356.46
381.04	3348.35
381.26	3362.27
381.47	3356.29
381.69	3390.45
381.91	3367.19
382.12	3371.94
382.34	3379.97
382.56	3369.40
382.77	3373.41
382.99	3385.46
383.21	3374.97
383.42	3386.77
383.64	3365.30
383.86	3390.62
384.07	3378.49
384.29	3369.97
384.51	3366.86
384.72	3380.05
384.94	3378.33
385.16	3380.13
385.37	3379.97
385.59	3386.03
385.81	3378.49
386.02	3383.82
386.24	3396.35
386.46	3397.99
386.67	3419.12
386.89	3417.73
387.11	3425.19
387.32	3416.59
387.54	3416.01
387.76	3421.83
387.97	3427.48
388.19	3432.64
388.40	3445.83
388.62	3433.46
388.84	3448.70
389.05	3445.91
389.27	3438.29
389.49	3463.12
389.70	3448.45
389.92	3459.43
390.14	3463.28
390.35	3458.28
390.57	3465.65
390.78	3464.92
391.00	3460.74
391.22	3477.45
391.43	3461.97
391.65	3488.84
391.86	3490.56
392.08	3506.70
392.30	3494.74
392.51	3491.62
392.73	3515.87
392.95	3485.23
393.16	3502.27
393.38	3501.29
393.59	3507.11
393.81	3512.27
394.03	3509.15
394.24	3503.34
394.46	3496.05
394.67	3523.82
394.89	3492.85
395.11	3539.71
395.32	3539.71
395.54	3534.96
395.75	3533.97
395.97	3509.40
396.19	3522.83
396.40	3538.32
396.62	3540.69
396.83	3545.61
397.05	3543.81
397.26	3547.49
397.48	3542.49
397.70	3562.97
397.91	3561.50
398.13	3549.38
398.34	3561.09
398.56	3560.84
398.78	3547.08
398.99	3588.86
399.21	3543.31
399.42	3582.06
399.64	3553.64
399.85	3558.14
400.07	3565.92
400.29	3570.67
400.50	3564.61
400.72	3597.54
400.93	3590.01
401.15	3585.67
401.36	3567.40
401.58	3611.31
401.79	3613.03
402.01	3611.72
402.23	3623.59
402.44	3626.87
402.66	3625.48
402.87	3647.35
403.09	3627.28
403.30	3628.84
403.52	3634.08
403.73	3623.51
403.95	3649.97
404.16	3689.87
404.38	3670.29
404.60	3678.56
404.81	3693.31
405.03	3701.09
405.24	3718.21
405.46	3708.79
405.67	3728.29
405.89	3722.96
406.10	3730.09
406.32	3751.06
406.53	3783.66
406.75	3799.15
406.96	3771.38
407.18	3788.00
407.39	3778.26
407.61	3812.83
407.82	3800.13
408.04	3827.33
408.25	3846.58
408.47	3867.88
408.68	3875.58
408.90	3876.97
409.12	3912.03
409.33	3918.58
409.55	3923.74
409.76	3935.38
409.98	3936.52
410.19	3971.50
410.41	3990.59
410.62	4002.55
410.84	3976.50
411.05	4025.82
411.27	4031.14
411.48	4049.16
411.70	4052.36
411.91	4083.24
412.12	4064.89
412.34	4081.19
412.55	4119.20
412.77	4097.82
412.98	4118.55
413.20	4095.69
413.41	4137.63
413.63	4127.97
413.84	4152.22
414.06	4177.77
414.27	4146.65
414.49	4180.40
414.70	4178.92
414.92	4175.97
415.13	4161.47
415.35	4195.88
415.56	4183.67
415.78	4216.19
415.99	4220.86
416.21	4229.71
416.42	4234.05
416.63	4224.88
416.85	4240.77
417.06	4210.62
417.28	4180.23
417.49	4237.17
417.71	4250.76
417.92	4234.95
418.14	4234.71
418.35	4247.24
418.57	4262.40
418.78	4234.87
418.99	4257.81
419.21	4235.85
419.42	4231.76
419.64	4217.34
419.85	4247.90
420.07	4288.69
420.28	4249.62
420.50	4242.41
420.71	4268.38
420.92	4245.03
421.14	4288.77
421.35	4255.92
421.57	4270.51
421.78	4282.55
422.00	4281.81
422.21	4293.03
422.42	4306.96
422.64	4263.54
422.85	4319.58
423.07	4313.76
423.28	4321.13
423.50	4311.06
423.71	4358.16
423.92	4362.17
424.14	4334.98
424.35	4361.52
424.57	4367.33
424.78	4411.08
424.99	4414.27
425.21	4398.95
425.42	4404.44
425.64	4418.04
425.85	4456.87
426.06	4448.52
426.28	4457.44
426.49	4485.54
426.71	4482.59
426.92	4501.35
427.13	4541.90
427.35	4541.82
427.56	4578.28
427.78	4564.76
427.99	4608.99
428.20	4625.95
428.42	4647.25
428.63	4662.57
428.84	4643.32
429.06	4696.16
429.27	4721.71
429.49	4725.32
429.70	4802.24
429.91	4775.04
430.13	4825.92
430.34	4824.03
430.56	4842.30
430.77	4910.87
430.98	4892.60
431.20	4920.86
431.41	4986.07
431.62	5012.94
431.84	4998.52
432.05	5058.73
432.26	5060.53
432.48	5069.05
432.69	5165.30
432.91	5162.03
433.12	5193.57
433.33	5234.61
433.55	5310.30
433.76	5313.33
433.97	5300.14
434.19	5363.30
434.40	5415.08
434.61	5458.33
434.83	5516.90
435.04	5509.04
435.25	5573.51
435.47	5594.64
435.68	5575.14
435.89	5705.07
436.11	5688.77
436.32	5745.04
436.53	5748.40
436.75	5772.24
436.96	5828.76
437.17	5814.67
437.39	5860.39
437.60	5923.63
437.81	5955.49
438.03	6008.08
438.24	6058.55
438.45	6080.83
438.67	6095.41
438.88	6140.71
439.09	6231.72
439.31	6218.04
439.52	6259.00
439.73	6249.01
439.94	6209.11
440.16	6293.74
440.37	6265.06
440.58	6359.84
440.80	6379.42
441.01	6344.77
441.22	6511.64
441.44	6457.41
441.65	6445.69
441.86	6452.66
442.08	6503.37
442.29	6492.22
442.50	6543.75
442.71	6509.02
442.93	6535.23
443.14	6531.05
443.35	6581.52
443.57	6507.05
443.78	6595.77
443.99	6624.03
444.20	6555.63
444.42	6593.72
444.63	6593.23
444.84	6618.38
445.06	6645.25
445.27	6586.92
445.48	6561.69
445.69	6614.37
445.91	6604.70
446.12	6544.00
446.33	6603.63
446.54	6665.73
446.76	6563.25
446.97	6618.38
447.18	6564.31
447.39	6600.60
447.61	6635.17
447.82	6635.99
448.03	6618.13
448.25	6645.58
448.46	6652.29
448.67	6660.40
448.88	6636.32
449.10	6671.38
449.31	6694.89
449.52	6648.03
449.73	6659.09
449.95	6730.53
450.16	6641.48
450.37	6707.92
450.58	6825.39
450.79	6682.77
451.01	6724.30
451.22	6678.26
451.43	6701.36
451.64	6740.44
451.86	6730.61
452.07	6759.44
452.28	6814.08
452.49	6854.72
452.71	6767.64
452.92	6767.55
453.13	6821.62
453.34	6847.75
453.55	6923.36
453.77	6941.22
453.98	6964.49
454.19	6863.23
454.40	6946.38
454.62	6987.42
454.83	6902.31
455.04	7039.44
455.25	6925.41
455.46	7198.53
455.68	7063.36
455.89	7079.25
456.10	7070.16
456.31	7139.96
456.52	7183.21
456.74	7200.90
456.95	7356.55
457.16	7290.03
457.37	7358.76
457.58	7373.02
457.80	7366.95
458.01	7391.86
458.22	7645.64
458.43	7519.65
458.64	7592.64
458.86	7516.05
459.07	7629.18
459.28	7617.30
459.49	7766.47
459.70	7922.03
459.91	7876.41
460.13	7882.22
460.34	7965.94
460.55	7942.68
460.76	8098.57
460.97	8125.60
461.19	8136.91
461.40	8379.47
461.61	8305.09
461.82	8388.48
462.03	8469.50
462.24	8478.67
462.46	8505.05
462.67	8575.09
462.88	8704.36
463.09	8736.31
463.30	8922.51
463.51	8798.07
463.72	9048.34
463.94	9147.95
464.15	9147.46
464.36	9136.15
464.57	9440.23
464.78	9454.82
464.99	9488.32
465.20	9496.27
465.42	9749.40
465.63	9762.34
465.84	9828.86
466.05	9975.82
466.26	10093.95
466.47	10257.78
466.68	10218.46
466.90	10418.51
467.11	10436.53
467.32	10581.36
467.53	10759.13
467.74	10636.90
467.95	10807.13
468.16	11051.82
468.37	11176.58
468.59	11229.26
468.80	11459.53
469.01	11365.74
469.22	11603.46
469.43	11918.52
469.64	11769.84
469.85	11976.52
470.06	12121.52
470.28	12269.54
470.49	12100.55
470.70	12403.32
470.91	12687.41
471.12	12621.06
471.33	12908.43
471.54	12846.50
471.75	12923.01
471.96	13327.69
472.17	13267.56
472.39	13704.35
472.60	13423.04
472.81	13770.95
473.02	13765.14
473.23	14016.38
473.44	14152.37
473.65	14083.23
473.86	14267.30
474.07	14354.70
474.28	14414.01
474.49	14813.04
474.71	14749.96
474.92	14993.75
475.13	14875.95
475.34	14953.45
475.55	15062.48
475.76	15152.51
475.97	15547.03
476.18	15473.31
476.39	15715.46
476.60	15855.37
476.81	15896.99
477.02	16068.85
477.23	16034.45
477.44	15998.98
477.65	16218.77
477.87	16390.88
478.08	16385.06
478.29	16423.48
478.50	16774.42
478.71	16601.98
478.92	16760.74
479.13	16776.96
479.34	16826.68
479.55	16975.94
479.76	16851.67
479.97	16944.07
480.18	17355.22
480.39	17028.12
480.60	17327.45
480.81	17372.26
481.02	17385.78
481.23	17405.11
481.44	17612.37
481.65	17714.77
481.86	17910.55
482.07	17538.89
482.28	18171.22
482.49	17855.26
482.71	17911.45
482.92	17987.64
483.13	18208.41
483.34	18010.00
483.55	18109.70
483.76	18101.67
483.97	18330.22
484.18	18198.99
484.39	18306.22
484.60	18242.57
484.81	18576.88
485.02	18340.79
485.23	18578.68
485.44	18618.82
485.65	18717.62
485.86	18552.79
486.07	18800.60
486.28	18763.65
486.49	18874.41
486.70	18956.41
486.91	19124.10
487.12	18915.29
487.33	18886.53
487.54	19237.72
487.75	19169.72
487.96	19245.25
488.17	19176.36
488.38	19394.35
488.59	19333.56
488.80	19403.28
489.01	19413.51
489.22	19666.23
489.43	19577.68
489.64	19441.94
489.85	19796.24
490.06	19524.51
490.26	19828.11
490.47	19694.58
490.68	19975.31
490.89	20166.27
491.10	19863.17
491.31	20238.68
491.52	20327.65
491.73	20261.21
491.94	20240.24
492.15	20397.03
492.36	20494.92
492.57	20514.99
492.78	20520.56
492.99	20702.34
493.20	20911.07
493.41	20879.61
493.62	20970.54
493.83	20964.24
494.04	21159.53
494.25	21326.32
494.46	21327.46
494.67	21222.12
494.88	21472.22
495.08	21562.08
495.29	21657.60
495.50	21816.11
495.71	21845.93
495.92	22051.30
496.13	22089.55
496.34	22007.88
496.55	22231.52
496.76	22574.27
496.97	22274.77
497.18	22692.97
497.39	22560.42
497.60	23055.70
497.81	22879.33
498.02	23145.73
498.22	22952.81
498.43	23410.49
498.64	23574.33
498.85	23521.90
499.06	23706.47
499.27	24122.78
499.48	23622.34
499.69	24117.86
499.90	24236.97
500.11	24516.15
500.32	24860.95
500.52	24672.13
500.73	25209.18
500.94	25252.36
501.15	25406.61
501.36	25508.43
501.57	25461.17
501.78	25729.45
501.99	26026.00
502.20	26115.78
502.41	26312.38
502.61	26370.71
502.82	26827.74
503.03	26659.64
503.24	27220.62
503.45	27061.61
503.66	27566.40
503.87	27544.11
504.08	27954.28
504.28	27908.90
504.49	28218.72
504.70	28412.13
504.91	28717.52
505.12	28656.65
505.33	29226.97
505.54	29354.27
505.75	29449.14
505.95	29808.51
506.16	29790.33
506.37	29894.04
506.58	30486.72
506.79	30155.19
507.00	30847.82
507.21	30798.34
507.41	30953.57
507.62	31219.15
507.83	31910.38
508.04	31661.51
508.25	32260.01
508.46	32157.78
508.67	32755.13
508.87	32616.36
509.08	33182.09
509.29	33105.58
509.50	33511.08
509.71	33822.12
509.92	34125.14
510.12	34061.41
510.33	34343.29
510.54	34374.99
510.75	34836.52
510.96	35155.51
511.17	35510.39
511.37	35558.14
511.58	35966.51
511.79	35751.14
512.00	35936.12
512.21	36494.07
512.42	36671.99
512.62	36929.30
512.83	37371.01
513.04	37265.17
513.25	37697.21
513.46	37035.63
513.66	38274.24
513.87	37980.65
514.08	38479.04
514.29	38351.98
514.50	38540.81
514.71	38984.48
514.91	38806.22
515.12	38958.92
515.33	39357.37
515.54	39328.45
515.75	39880.34
515.95	39696.43
516.16	39761.89
516.37	40373.25
516.58	40466.22
516.78	40269.95
516.99	40689.94
517.20	40701.33
517.41	40746.30
517.62	41032.86
517.82	40872.70
518.03	41611.45
518.24	42005.31
518.45	41296.88
518.66	41695.17
518.86	41561.23
519.07	42071.50
519.28	41370.93
519.49	42146.79
519.69	42195.69
519.90	42266.31
520.11	42374.52
520.32	42253.69
520.52	42636.17
520.73	42203.31
520.94	42825.24
521.15	42656.98
521.36	42092.64
521.56	42938.70
521.77	42205.52
521.98	42819.50
522.19	42327.91
522.39	42629.04
522.60	42379.44
522.81	42553.27
523.02	42274.33
523.22	42584.32
523.43	42744.14
523.64	42507.15
523.84	42476.18
524.05	42871.85
524.26	42651.00
524.47	42364.61
524.67	42400.33
524.88	42516.00
525.09	42804.76
525.30	42345.44
525.50	42235.75
525.71	42240.09
525.92	42187.91
526.13	42398.61
526.33	42068.80
526.54	41743.58
526.75	41920.12
526.95	42264.01
527.16	41394.20
527.37	41961.98
527.58	41958.78
527.78	41721.47
527.99	41930.44
528.20	41900.13
528.40	41420.09
528.61	41194.56
528.82	41565.90
529.03	41324.40
529.23	41119.44
529.44	41405.01
529.65	41250.27
529.85	41107.48
530.06	40973.38
530.27	40942.91
530.47	40365.38
530.68	41194.48
530.89	40240.21
531.09	40831.91
531.30	40608.52
531.51	40222.84
531.72	40612.94
531.92	40533.64
532.13	40668.89
532.34	40282.81
532.54	40189.09
532.75	40186.39
532.96	39902.21
533.16	40132.41
533.37	40123.15
533.58	39671.28
533.78	40037.38
533.99	40023.86
534.20	39535.55
534.40	39709.62
534.61	39798.18
534.82	39717.65
535.02	39705.12
535.23	39599.61
535.44	39687.50
535.64	39587.65
535.85	39578.63
536.06	39509.74
536.26	39415.62
536.47	39360.32
536.68	39805.88
536.88	39182.07
537.09	39631.80
537.29	39048.54
537.50	39704.05
537.71	39190.09
537.91	39235.15
538.12	39361.22
538.33	39110.14
538.53	39232.04
538.74	39265.87
538.95	39258.82
539.15	39052.88
539.36	39267.18
539.56	39484.92
539.77	39034.45
539.98	39094.74
540.18	39348.52
540.39	38984.31
540.60	39250.22
540.80	39428.64
541.01	39343.86
541.21	39321.08
541.42	39500.65
541.63	39230.89
541.83	39521.95
542.04	39467.14
542.25	39467.63
542.45	39602.31
542.66	39593.54
542.86	39744.03
543.07	38912.23
543.28	39791.71
543.48	39612.71
543.69	39828.98
543.89	39583.30
544.10	40178.20
544.31	40084.07
544.51	39850.77
544.72	39949.40
544.92	39965.21
545.13	40340.56
545.33	40171.15
545.54	40106.36
545.75	40358.83
545.95	40172.87
546.16	40267.73
546.36	40787.18
546.57	40152.56
546.78	39575.11
546.98	40130.77
547.19	39557.83
547.39	40486.38
547.60	40785.87
547.80	41336.61
548.01	41450.97
548.22	41220.94
548.42	41396.33
548.63	41706.23
548.83	41563.77
549.04	41869.25
549.24	41536.66
549.45	41851.22
549.65	42234.44
549.86	41726.05
550.07	41993.11
550.27	42402.70
550.48	42575.06
550.68	42526.15
550.89	42587.51
551.09	42896.26
551.30	42808.69
551.50	43242.37
551.71	43124.16
551.91	43225.74
552.12	43454.87
552.33	43864.87
552.53	43459.29
552.74	44194.43
552.94	44346.31
553.15	44116.03
553.35	44554.05
553.56	44230.96
553.76	44878.86
553.97	44710.19
554.17	45036.96
554.38	45686.25
554.58	45249.46
554.79	45923.32
554.99	45576.48
555.20	45749.08
555.40	46370.93
555.61	46244.53
555.81	46079.87
556.02	47123.76
556.22	46856.21
556.43	46816.98
556.63	47109.51
556.84	47177.01
557.04	47874.55
557.25	47425.55
557.45	48048.71
557.66	48133.74
557.86	48200.50
558.07	48798.34
558.27	48523.59
558.48	48760.01
558.68	48858.88
558.89	49216.13
559.09	49492.11
559.30	49478.60
559.50	49873.94
559.71	49579.93
559.91	50509.95
560.12	50354.55
560.32	50479.81
560.53	50907.92
560.73	50746.95
560.94	51366.82
561.14	51051.76
561.35	51920.43
561.55	51718.09
561.76	52077.39
561.96	51609.06
562.17	52321.83
562.37	52670.48
562.57	52638.78
562.78	52791.64
562.98	53258.49
563.19	53392.27
563.39	53596.65
563.60	53812.84
563.80	53379.32
564.01	54262.82
564.21	54163.37
564.42	54185.98
564.62	54613.67
564.82	55096.67
565.03	54748.10
565.23	54781.69
565.44	55206.03
565.64	55256.00
565.85	55773.64
566.05	55627.25
566.25	55979.18
566.46	55741.04
566.66	56274.41
566.87	56404.83
567.07	56523.12
567.28	56716.86
567.48	57217.95
567.68	56563.59
567.89	57647.62
568.09	57199.69
568.30	57356.72
568.50	57924.58
568.71	57754.77
568.91	58069.83
569.11	57641.72
569.32	57891.90
569.52	58127.91
569.73	57653.68
569.93	58444.52
570.13	58254.88
570.34	58384.56
570.54	59000.18
570.75	58757.37
570.95	58791.61
571.15	58680.53
571.36	59292.79
571.56	58795.63
571.77	58848.55
571.97	58519.15
572.17	59406.17
572.38	59346.20
572.58	59665.60
572.79	59401.91
572.99	59421.81
573.19	59429.92
573.40	59333.01
573.60	59608.59
573.81	59452.21
574.01	59927.91
574.21	59785.12
574.42	59854.75
574.62	59555.42
574.82	60232.40
575.03	59867.94
575.23	60332.50
575.43	59886.13
575.64	59857.54
575.84	60330.70
576.05	59605.97
576.25	59859.26
576.45	59639.80
576.66	60253.94
576.86	59637.91
577.06	59931.02
577.27	59788.56
577.47	59949.53
577.67	59797.66
577.88	59244.87
578.08	59942.73
578.28	59973.54
578.49	59743.02
578.69	59772.26
578.89	59335.88
579.10	59492.43
579.30	60154.41
579.50	59479.48
579.71	58946.11
579.91	59486.69
580.11	59049.08
580.32	58883.69
580.52	58831.26
580.72	59281.90
580.93	58549.30
581.13	58708.87
581.33	59162.87
581.54	58596.89
581.74	58567.24
581.94	58578.79
582.15	58821.59
582.35	58339.34
582.55	58241.36
582.76	57780.49
582.96	58302.15
583.16	57626.15
583.37	57839.06
583.57	57381.22
583.77	57818.99
583.97	56633.63
584.18	57774.92
584.38	57371.88
584.58	56964.01
584.79	57302.00
584.99	56957.21
585.19	56713.50
585.40	56453.00
585.60	56657.79
585.80	56026.28
586.00	56395.08
586.21	56227.80
586.41	56219.04
586.61	56327.09
586.82	56036.03
587.02	55749.89
587.22	55821.48
587.42	55047.60
587.63	55655.43
587.83	54831.58
588.03	55130.83
588.23	54676.01
588.44	54836.66
588.64	54416.17
588.84	54596.23
589.05	54689.53
589.25	54374.64
589.45	54311.48
589.65	54060.31
589.86	54198.59
590.06	54044.01
590.26	53689.79
590.46	53942.60
590.67	53203.03
590.87	53651.78
591.07	53634.17
591.27	53000.86
591.48	53344.26
591.68	52580.37
591.88	53467.06
592.08	52524.91
592.29	52925.08
592.49	52649.67
592.69	52767.14
592.89	52274.98
593.10	52306.27
593.30	52056.25
593.50	52385.89
593.70	51243.05
593.90	52026.76
594.11	51681.97
594.31	51617.25
594.51	51778.96
594.71	51624.13
594.92	51534.84
595.12	51270.32
595.32	51142.86
595.52	51247.14
595.72	50472.11
595.93	51138.76
596.13	50798.80
596.33	50439.75
596.53	50792.90
596.73	50615.14
596.94	50436.06
597.14	50609.81
597.34	50280.91
597.54	50503.24
597.74	49917.68
597.95	50043.84
598.15	49914.32
598.35	49950.61
598.55	49870.25
598.75	49654.56
598.96	50133.37
599.16	49650.46
599.36	49718.29
599.56	49576.00
599.76	49367.93
599.97	49869.51
600.17	49487.77
600.37	49513.33
600.57	48709.95
600.77	49562.40
600.97	48960.87
601.18	49502.19
601.38	48936.54
601.58	49305.67
601.78	49006.25
601.98	48847.66
602.18	49112.50
602.39	49292.64
602.59	48991.43
602.79	48983.64
602.99	48938.02
603.19	48865.27
603.39	48575.93
603.60	48629.02
603.80	48631.07
604.00	48549.47
604.20	48550.54
604.40	48825.87
604.60	48518.59
604.80	48418.81
605.01	48564.79
605.21	48372.12
605.41	48198.70
605.61	47953.52
605.81	48362.21
606.01	48569.71
606.21	47997.34
606.42	48602.64
606.62	48323.71
606.82	48702.34
607.02	48241.54
607.22	48444.54
607.42	48680.30
607.62	48092.04
607.82	48302.65
