SpectraSuite Data File
++++++++++++++++++++++++++++++++++++
Date: Tue Sep 20 12:17:38 EDT 2022
User: Laboratoire
Dark Spectrum Present: No
Reference Spectrum Present: No
Number of Sampled Component Spectra: 1
Spectrometers: FLMT00174
Integration Time (usec): 15000 (FLMT00174)
Spectra Averaged: 25 (FLMT00174)
Boxcar Smoothing: 0 (FLMT00174)
Correct for Electrical Dark: No (FLMT00174)
Strobe/Lamp Enabled: No (FLMT00174)
Correct for Detector Non-linearity: No (FLMT00174)
Correct for Stray Light: No (FLMT00174)
Number of Pixels in Processed Spectrum: 3648
>>>>>Begin Processed Spectral Data<<<<<
345.74	3184.92
345.96	3184.92
346.18	3184.92
346.39	3180.17
346.61	3229.48
346.83	3221.54
347.05	3221.13
347.27	3228.42
347.49	3225.63
347.71	3244.31
347.93	3243.90
348.15	3224.16
348.36	3225.80
348.58	3238.41
348.80	3227.35
349.02	3219.41
349.24	3235.63
349.46	3285.76
349.68	3274.54
349.90	3294.03
350.11	3274.95
350.33	3288.55
350.55	3278.55
350.77	3272.08
350.99	3275.44
351.21	3293.22
351.43	3260.12
351.65	3286.66
351.86	3268.07
352.08	3275.03
352.30	3281.01
352.52	3304.85
352.74	3264.54
352.96	3274.46
353.18	3280.19
353.39	3277.49
353.61	3274.21
353.83	3288.55
354.05	3298.70
354.27	3281.75
354.49	3269.62
354.70	3277.32
354.92	3281.01
355.14	3268.80
355.36	3284.37
355.58	3277.49
355.80	3268.72
356.02	3287.32
356.23	3283.30
356.45	3279.62
356.67	3299.93
356.89	3310.01
357.11	3281.91
357.33	3299.11
357.54	3284.78
357.76	3254.96
357.98	3273.56
358.20	3302.80
358.42	3272.57
358.63	3298.70
358.85	3273.72
359.07	3293.95
359.29	3262.09
359.51	3263.72
359.73	3269.46
359.94	3280.19
360.16	3275.28
360.38	3292.72
360.60	3278.47
360.82	3308.21
361.03	3288.14
361.25	3277.98
361.47	3304.44
361.69	3289.04
361.91	3288.38
362.12	3291.99
362.34	3278.88
362.56	3300.26
362.78	3294.94
363.00	3300.51
363.21	3271.92
363.43	3302.72
363.65	3269.46
363.87	3276.34
364.09	3291.09
364.30	3280.68
364.52	3265.04
364.74	3300.10
364.96	3284.04
365.17	3283.30
365.39	3272.74
365.61	3303.46
365.83	3287.40
366.05	3271.51
366.26	3283.30
366.48	3295.02
366.70	3299.11
366.92	3292.15
367.13	3291.50
367.35	3301.08
367.57	3292.81
367.79	3286.58
368.01	3294.61
368.22	3295.35
368.44	3278.14
368.66	3304.27
368.88	3282.16
369.09	3296.16
369.31	3288.55
369.53	3280.68
369.75	3290.27
369.96	3294.85
370.18	3291.99
370.40	3308.45
370.62	3286.42
370.83	3283.88
371.05	3293.95
371.27	3308.45
371.49	3298.46
371.70	3295.59
371.92	3280.60
372.14	3300.51
372.36	3285.92
372.57	3303.95
372.79	3297.48
373.01	3298.13
373.22	3282.40
373.44	3303.95
373.66	3291.74
373.88	3318.53
374.09	3288.05
374.31	3301.33
374.53	3283.47
374.75	3311.89
374.96	3301.16
375.18	3321.15
375.40	3292.72
375.61	3305.01
375.83	3295.35
376.05	3296.82
376.27	3315.74
376.48	3301.49
376.70	3300.34
376.92	3296.66
377.13	3298.54
377.35	3309.27
377.57	3310.42
377.79	3288.30
378.00	3294.69
378.22	3307.96
378.44	3282.16
378.65	3304.52
378.87	3309.19
379.09	3315.83
379.30	3296.90
379.52	3310.91
379.74	3313.61
379.96	3297.72
380.17	3291.17
380.39	3299.28
380.61	3332.05
380.82	3304.93
381.04	3307.96
381.26	3323.69
381.47	3321.07
381.69	3331.39
381.91	3303.29
382.12	3322.71
382.34	3336.71
382.56	3320.25
382.77	3300.18
382.99	3319.02
383.21	3312.55
383.42	3340.16
383.64	3324.18
383.86	3319.76
384.07	3331.72
384.29	3322.38
384.51	3303.70
384.72	3329.51
384.94	3315.01
385.16	3323.20
385.37	3326.47
385.59	3325.25
385.81	3347.20
386.02	3344.41
386.24	3342.86
386.46	3340.65
386.67	3336.63
386.89	3361.62
387.11	3383.49
387.32	3355.64
387.54	3351.38
387.76	3356.05
387.97	3371.28
388.19	3356.21
388.40	3350.56
388.62	3366.86
388.84	3386.77
389.05	3360.31
389.27	3375.38
389.49	3382.51
389.70	3365.55
389.92	3395.70
390.14	3372.19
390.35	3392.99
390.57	3389.22
390.78	3389.88
391.00	3361.21
391.22	3377.51
391.43	3370.06
391.65	3404.63
391.86	3415.44
392.08	3393.73
392.30	3386.28
392.51	3393.32
392.73	3421.66
392.95	3384.47
393.16	3379.39
393.38	3405.69
393.59	3375.79
393.81	3420.68
394.03	3405.53
394.24	3396.68
394.46	3384.72
394.67	3420.27
394.89	3398.65
395.11	3421.99
395.32	3414.13
395.54	3415.36
395.75	3401.59
395.97	3399.38
396.19	3377.84
396.40	3422.40
396.62	3411.83
396.83	3428.05
397.05	3396.68
397.26	3423.55
397.48	3418.22
397.70	3413.06
397.91	3421.09
398.13	3420.68
398.34	3416.67
398.56	3412.57
398.78	3417.81
398.99	3450.01
399.21	3421.83
399.42	3444.03
399.64	3408.48
399.85	3431.99
400.07	3436.90
400.29	3444.03
400.50	3441.65
400.72	3465.33
400.93	3439.44
401.15	3435.02
401.36	3459.59
401.58	3466.72
401.79	3467.46
402.01	3483.92
402.23	3466.15
402.44	3506.29
402.66	3476.63
402.87	3487.61
403.09	3487.94
403.30	3506.12
403.52	3475.40
403.73	3475.73
403.95	3505.22
404.16	3508.42
404.38	3503.75
404.60	3513.82
404.81	3543.89
405.03	3537.74
405.24	3541.18
405.46	3561.91
405.67	3564.28
405.89	3572.07
406.10	3561.01
406.32	3575.84
406.53	3593.94
406.75	3619.09
406.96	3606.64
407.18	3605.08
407.39	3597.46
407.61	3631.95
407.82	3608.52
408.04	3663.90
408.25	3645.63
408.47	3649.56
408.68	3657.26
408.90	3660.54
409.12	3676.35
409.33	3698.88
409.55	3686.75
409.76	3705.76
409.98	3684.38
410.19	3720.91
410.41	3717.80
410.62	3743.11
410.84	3723.78
411.05	3731.32
411.27	3778.83
411.48	3762.94
411.70	3772.52
411.91	3779.57
412.12	3772.69
412.34	3744.59
412.55	3766.30
412.77	3767.20
412.98	3771.95
413.20	3773.59
413.41	3783.25
413.63	3773.83
413.84	3767.85
414.06	3820.04
414.27	3773.51
414.49	3780.47
414.70	3790.63
414.92	3797.34
415.13	3774.90
415.35	3796.20
415.56	3786.37
415.78	3778.50
415.99	3782.02
416.21	3787.27
416.42	3801.77
416.63	3787.02
416.85	3788.82
417.06	3790.79
417.28	3764.66
417.49	3792.26
417.71	3803.16
417.92	3788.82
418.14	3788.91
418.35	3793.08
418.57	3775.80
418.78	3780.14
418.99	3761.22
419.21	3800.87
419.42	3800.95
419.64	3793.08
419.85	3800.21
420.07	3811.35
420.28	3796.44
420.50	3804.14
420.71	3807.17
420.92	3794.39
421.14	3803.32
421.35	3801.44
421.57	3817.00
421.78	3831.34
422.00	3824.70
422.21	3829.05
422.42	3819.63
422.64	3801.60
422.85	3843.71
423.07	3855.83
423.28	3846.66
423.50	3845.02
423.71	3863.53
423.92	3892.78
424.14	3862.14
424.35	3886.80
424.57	3891.63
424.78	3937.92
424.99	3919.89
425.21	3922.27
425.42	3923.83
425.64	3916.29
425.85	3932.92
426.06	3966.01
426.28	3957.33
426.49	3985.35
426.71	3998.78
426.92	3999.36
427.13	4003.94
427.35	4033.35
427.56	4049.49
427.78	4058.58
427.99	4053.34
428.20	4093.32
428.42	4101.51
428.63	4116.50
428.84	4092.58
429.06	4129.52
429.27	4158.03
429.49	4167.78
429.70	4191.95
429.91	4193.91
430.13	4211.28
430.34	4231.92
430.56	4244.37
430.77	4278.86
430.98	4271.65
431.20	4316.30
431.41	4343.33
431.62	4359.63
431.84	4342.92
432.05	4417.55
432.26	4408.21
432.48	4386.01
432.69	4491.44
432.91	4474.32
433.12	4493.90
433.33	4520.03
433.55	4593.10
433.76	4576.64
433.97	4567.05
434.19	4610.06
434.40	4642.01
434.61	4642.34
434.83	4671.58
435.04	4675.27
435.25	4720.98
435.47	4715.98
435.68	4732.36
435.89	4787.50
436.11	4797.90
436.32	4790.94
436.53	4805.11
436.75	4803.55
436.96	4823.95
437.17	4827.96
437.39	4845.49
437.60	4854.10
437.81	4904.39
438.03	4900.13
438.24	4911.85
438.45	4963.13
438.67	4930.03
438.88	4969.93
439.09	4971.16
439.31	4966.65
439.52	4968.13
439.73	4945.27
439.94	4925.28
440.16	4947.89
440.37	4936.67
440.58	4986.39
440.80	4970.50
441.01	4941.26
441.22	5042.84
441.44	5001.55
441.65	4974.84
441.86	4968.29
442.08	4992.62
442.29	4976.07
442.50	4980.91
442.71	4976.32
442.93	4956.49
443.14	4958.30
443.35	5002.86
443.57	4936.83
443.78	4972.14
443.99	4981.72
444.20	4935.77
444.42	4962.47
444.63	4938.64
444.84	4955.84
445.06	4972.22
445.27	4918.89
445.48	4902.51
445.69	4930.53
445.91	4917.99
446.12	4914.55
446.33	4895.14
446.54	4944.94
446.76	4908.65
446.97	4928.31
447.18	4889.73
447.39	4912.26
447.61	4910.78
447.82	4931.18
448.03	4900.71
448.25	4921.51
448.46	4946.83
448.67	4961.49
448.88	4916.85
449.10	4954.45
449.31	4953.14
449.52	4940.93
449.73	4952.56
449.95	4973.21
450.16	4960.59
450.37	5013.35
450.58	5033.83
450.79	4963.21
451.01	4986.89
451.22	4972.71
451.43	4995.57
451.64	5040.71
451.86	5017.85
452.07	5055.53
452.28	5055.04
452.49	5118.78
452.71	5019.41
452.92	5075.60
453.13	5098.54
453.34	5118.12
453.55	5143.92
453.77	5149.66
453.98	5164.81
454.19	5127.62
454.40	5186.36
454.62	5219.94
454.83	5177.43
455.04	5253.78
455.25	5192.67
455.46	5365.84
455.68	5303.99
455.89	5314.89
456.10	5328.57
456.31	5351.51
456.52	5371.49
456.74	5376.98
456.95	5453.90
457.16	5452.35
457.37	5523.04
457.58	5492.73
457.80	5515.84
458.01	5543.85
458.22	5686.80
458.43	5643.22
458.64	5656.82
458.86	5643.96
459.07	5706.95
459.28	5729.48
459.49	5801.32
459.70	5901.34
459.91	5912.16
460.13	5904.70
460.34	5934.11
460.55	5955.98
460.76	6041.92
460.97	6087.87
461.19	6082.06
461.40	6247.37
461.61	6182.08
461.82	6267.19
462.03	6309.14
462.24	6340.18
462.46	6332.07
462.67	6396.71
462.88	6469.86
463.09	6507.54
463.30	6569.97
463.51	6549.81
463.72	6713.08
463.94	6751.99
464.15	6785.41
464.36	6772.14
464.57	6942.45
464.78	6995.21
464.99	7037.31
465.20	7032.97
465.42	7187.96
465.63	7201.23
465.84	7200.90
466.05	7303.71
466.26	7387.92
466.47	7454.77
466.68	7418.40
466.90	7549.96
467.11	7611.07
467.32	7681.28
467.53	7767.45
467.74	7665.14
467.95	7808.74
468.16	7921.05
468.37	7954.56
468.59	7985.28
468.80	8131.91
469.01	8039.26
469.22	8190.32
469.43	8363.99
469.64	8302.22
469.85	8437.71
470.06	8424.77
470.28	8539.62
470.49	8401.26
470.70	8571.40
470.91	8712.80
471.12	8623.50
471.33	8810.36
471.54	8766.78
471.75	8802.50
471.96	8989.52
472.17	8907.60
472.39	9092.98
472.60	8962.89
472.81	9079.30
473.02	9080.94
473.23	9224.79
473.44	9234.54
473.65	9228.47
473.86	9268.53
474.07	9271.15
474.28	9315.14
474.49	9503.23
474.71	9444.58
474.92	9541.57
475.13	9454.49
475.34	9470.30
475.55	9482.91
475.76	9501.02
475.97	9669.94
476.18	9592.28
476.39	9717.61
476.60	9743.01
476.81	9685.01
477.02	9835.17
477.23	9800.84
477.44	9724.57
477.65	9833.94
477.87	9879.48
478.08	9864.90
478.29	9913.73
478.50	9991.79
478.71	9940.43
478.92	9965.58
479.13	9968.28
479.34	9993.19
479.55	10068.31
479.76	9993.68
479.97	10019.32
480.18	10180.70
480.39	9974.10
480.60	10167.02
480.81	10164.72
481.02	10144.65
481.23	10151.54
481.44	10250.00
481.65	10303.00
481.86	10400.24
482.07	10157.02
482.28	10487.48
482.49	10321.27
482.71	10338.72
482.92	10385.33
483.13	10463.07
483.34	10406.63
483.55	10479.46
483.76	10431.78
483.97	10521.81
484.18	10510.67
484.39	10579.81
484.60	10506.65
484.81	10685.48
485.02	10606.43
485.23	10689.82
485.44	10770.76
485.65	10795.09
485.86	10664.43
486.07	10864.15
486.28	10819.91
486.49	10876.84
486.70	10957.04
486.91	11014.30
487.12	10945.00
487.33	10931.40
487.54	11130.22
487.75	11119.24
487.96	11172.16
488.17	11141.03
488.38	11256.62
488.59	11259.08
488.80	11314.37
489.01	11318.47
489.22	11471.98
489.43	11419.64
489.64	11391.70
489.85	11605.43
490.06	11489.35
490.26	11635.33
490.47	11551.69
490.68	11820.38
490.89	11912.05
491.10	11718.56
491.31	11919.51
491.52	12022.97
491.73	12013.06
491.94	12048.86
492.15	12167.80
492.36	12252.18
492.57	12269.87
492.78	12351.05
492.99	12370.80
493.20	12500.23
493.41	12567.16
493.62	12615.41
493.83	12579.20
494.04	12720.26
494.25	12845.52
494.46	12846.91
494.67	12904.25
494.88	13071.61
495.08	13108.31
495.29	13260.27
495.50	13399.78
495.71	13353.66
495.92	13485.79
496.13	13530.03
496.34	13556.32
496.55	13708.86
496.76	13939.13
496.97	13793.07
497.18	14023.02
497.39	14063.89
497.60	14328.41
497.81	14224.21
498.02	14421.47
498.22	14324.31
498.43	14695.90
498.64	14679.59
498.85	14747.91
499.06	14848.26
499.27	15087.80
499.48	14950.34
499.69	15147.19
499.90	15303.41
500.11	15463.47
500.32	15721.11
500.52	15599.54
500.73	15924.68
500.94	16039.20
501.15	16095.97
501.36	16116.20
501.57	16204.68
501.78	16490.82
501.99	16710.85
502.20	16696.76
502.41	16806.78
502.61	16829.63
502.82	17137.57
503.03	17137.89
503.24	17476.30
503.45	17380.29
503.66	17720.34
503.87	17752.53
504.08	18000.25
504.28	17998.78
504.49	18116.82
504.70	18271.98
504.91	18489.72
505.12	18447.20
505.33	18867.03
505.54	18872.52
505.75	19047.42
505.95	19274.17
506.16	19316.44
506.37	19344.29
506.58	19712.03
506.79	19594.88
507.00	19991.37
507.21	19881.84
507.41	19981.38
507.62	20191.83
507.83	20608.96
508.04	20352.47
508.25	20759.52
508.46	20705.13
508.67	20990.86
508.87	20978.49
509.08	21324.84
509.29	21227.36
509.50	21427.73
509.71	21583.05
509.92	21688.97
510.12	21553.07
510.33	21799.15
510.54	21835.44
510.75	21995.10
510.96	22229.47
511.17	22428.94
511.37	22423.21
511.58	22650.12
511.79	22561.98
512.00	22614.49
512.21	22866.23
512.42	22926.44
512.62	22939.05
512.83	23091.91
513.04	23015.24
513.25	23280.57
513.46	22796.10
513.66	23449.82
513.87	23281.39
514.08	23538.04
514.29	23417.95
514.50	23352.99
514.71	23596.37
514.91	23439.58
515.12	23439.41
515.33	23633.07
515.54	23546.32
515.75	23776.34
515.95	23576.71
516.16	23533.86
516.37	23795.27
516.58	23818.29
516.78	23722.03
516.99	23796.66
517.20	23772.82
517.41	23696.88
517.62	23745.95
517.82	23615.95
518.03	23847.78
518.24	24065.19
518.45	23550.66
518.66	23776.34
518.86	23583.83
519.07	23827.87
519.28	23351.60
519.49	23734.16
519.69	23673.62
519.90	23600.79
520.11	23558.77
520.32	23417.05
520.52	23581.13
520.73	23227.24
520.94	23594.16
521.15	23400.99
521.36	23044.48
521.56	23402.47
521.77	22952.90
521.98	23191.44
522.19	22832.15
522.39	23005.16
522.60	22810.77
522.81	22822.32
523.02	22707.47
523.22	22782.92
523.43	22815.68
523.64	22585.98
523.84	22501.36
524.05	22650.12
524.26	22490.06
524.47	22316.47
524.67	22290.99
524.88	22335.80
525.09	22391.51
525.30	22139.44
525.50	22080.71
525.71	22110.28
525.92	22048.84
526.13	22066.62
526.33	21900.98
526.54	21708.96
526.75	21762.54
526.95	21914.41
527.16	21467.87
527.37	21696.67
527.58	21669.64
527.78	21552.50
527.99	21602.38
528.20	21631.87
528.40	21345.32
528.61	21197.87
528.82	21475.57
529.03	21257.18
529.23	21208.93
529.44	21275.86
529.65	21215.32
529.85	21129.79
530.06	21081.30
530.27	20993.56
530.47	20809.33
530.68	21185.83
530.89	20818.09
531.09	21085.80
531.30	20905.34
531.51	20700.38
531.72	20867.25
531.92	20758.54
532.13	20899.60
532.34	20745.51
532.54	20691.94
532.75	20809.41
532.96	20677.69
533.16	20762.96
533.37	20741.34
533.58	20503.94
533.78	20708.65
533.99	20679.08
534.20	20435.04
534.40	20525.89
534.61	20555.13
534.82	20551.20
535.02	20675.15
535.23	20606.99
535.44	20644.02
535.64	20468.14
535.85	20550.30
536.06	20503.85
536.26	20482.31
536.47	20460.35
536.68	20675.47
536.88	20438.89
537.09	20669.98
537.29	20338.38
537.50	20759.36
537.71	20525.97
537.91	20595.60
538.12	20628.86
538.33	20530.40
538.53	20635.50
538.74	20675.23
538.95	20686.04
539.15	20628.53
539.36	20803.76
539.56	20892.72
539.77	20730.44
539.98	20711.27
540.18	20810.23
540.39	20697.59
540.60	20799.25
540.80	20921.64
541.01	20854.55
541.21	20872.82
541.42	20991.19
541.63	20922.79
541.83	21090.39
542.04	21113.08
542.25	21076.06
542.45	21263.98
542.66	21161.33
542.86	21314.93
543.07	20970.63
543.28	21419.79
543.48	21383.25
543.69	21655.96
543.89	21524.56
544.10	21918.92
544.31	21808.41
544.51	21745.41
544.72	21903.84
544.92	21863.05
545.13	22105.45
545.33	22021.23
545.54	21946.52
545.75	22082.67
545.95	21957.58
546.16	21985.76
546.36	22407.24
546.57	22106.76
546.78	21862.39
546.98	22224.15
547.19	22032.46
547.39	22456.06
547.60	22609.66
547.80	22852.96
548.01	22997.87
548.22	22880.89
548.42	23029.57
548.63	23186.53
548.83	23121.32
549.04	23335.38
549.24	23190.54
549.45	23313.01
549.65	23570.73
549.86	23373.14
550.07	23503.39
550.27	23787.40
550.48	23947.88
550.68	23941.49
550.89	24020.54
551.09	24205.43
551.30	24302.84
551.50	24399.58
551.71	24317.34
551.91	24419.24
552.12	24463.07
552.33	24820.73
552.53	24587.91
552.74	25047.07
552.94	25091.71
553.15	25018.40
553.35	25281.85
553.56	25173.06
553.76	25545.30
553.97	25474.93
554.17	25705.53
554.38	26157.72
554.58	25892.22
554.79	26159.69
554.99	25807.19
555.20	25967.10
555.40	26315.58
555.61	26143.22
555.81	26159.85
556.02	26764.58
556.22	26771.70
556.43	26730.50
556.63	26919.07
556.84	27016.23
557.04	27421.40
557.25	27163.19
557.45	27542.23
557.66	27559.52
557.86	27577.62
558.07	27866.22
558.27	27680.35
558.48	27798.39
558.68	27926.10
558.89	28079.62
559.09	28171.37
559.30	28160.23
559.50	28400.82
559.71	28301.78
559.91	28802.88
560.12	28698.43
560.32	28809.10
560.53	29058.46
560.73	28905.52
560.94	29239.26
561.14	29073.62
561.35	29471.50
561.55	29353.13
561.76	29499.11
561.96	29236.39
562.17	29550.39
562.37	29729.87
562.57	29617.64
562.78	29712.83
562.98	29979.40
563.19	29990.21
563.39	30268.81
563.60	30294.62
563.80	30092.03
564.01	30435.52
564.21	30376.46
564.42	30347.05
564.62	30410.29
564.82	30687.99
565.03	30420.36
565.23	30580.76
565.44	30813.66
565.64	30716.83
565.85	30998.14
566.05	30977.90
566.25	31176.80
566.46	31028.53
566.66	31139.28
566.87	31003.87
567.07	30976.76
567.28	31037.95
567.48	31259.05
567.68	30838.97
567.89	31386.60
568.09	31115.36
568.30	31017.31
568.50	31197.36
568.71	31044.67
568.91	31262.41
569.11	30920.56
569.32	31130.52
569.52	31276.66
569.73	30840.20
569.93	31271.34
570.13	31048.27
570.34	30834.46
570.54	31070.23
570.75	30919.17
570.95	30838.07
571.15	30754.92
571.36	31085.63
571.56	30846.01
571.77	30724.20
571.97	30493.19
572.17	30891.89
572.38	30591.57
572.58	30799.16
572.79	30489.42
572.99	30507.20
573.19	30486.31
573.40	30306.50
573.60	30327.39
573.81	30145.94
574.01	30152.00
574.21	30072.29
574.42	30058.04
574.62	29971.61
574.82	30255.71
575.03	29876.01
575.23	30137.74
575.43	29861.35
575.64	29700.71
575.84	29947.20
576.05	29539.66
576.25	29560.79
576.45	29466.01
576.66	29682.60
576.86	29241.96
577.06	29431.03
577.27	29145.30
577.47	29122.28
577.67	29094.84
577.88	28682.79
578.08	28869.56
578.28	28932.97
578.49	28675.49
578.69	28690.24
578.89	28393.45
579.10	28429.74
579.30	28702.45
579.50	28425.81
579.71	28145.48
579.91	28312.59
580.11	28052.75
580.32	27828.95
580.52	27665.68
580.72	27860.40
580.93	27252.89
581.13	27348.82
581.33	27540.92
581.54	27285.25
581.74	27217.42
581.94	27125.51
582.15	27289.59
582.35	26970.77
582.55	26888.93
582.76	26634.08
582.96	26803.90
583.16	26473.76
583.37	26686.84
583.57	26419.78
583.77	26703.79
583.97	26114.14
584.18	26564.78
584.38	26168.70
584.58	25904.02
584.79	25897.79
584.99	25699.30
585.19	25590.60
585.40	25501.14
585.60	25646.14
585.80	25397.60
586.00	25565.29
586.21	25429.22
586.41	25403.58
586.61	25422.91
586.82	25186.98
587.02	25044.86
587.22	25088.60
587.42	24753.14
587.63	24922.80
587.83	24608.23
588.03	24723.16
588.23	24363.95
588.44	24414.65
588.64	24211.58
588.84	24275.15
589.05	24279.32
589.25	24311.52
589.45	24181.92
589.65	24177.99
589.86	24145.22
590.06	24006.37
590.26	23873.91
590.46	23940.51
590.67	23627.99
590.87	23894.63
591.07	23766.92
591.27	23532.23
591.48	23665.10
591.68	23323.66
591.88	23688.44
592.08	23334.56
592.29	23322.27
592.49	23180.71
592.69	23276.89
592.89	23047.59
593.10	23156.05
593.30	23063.57
593.50	23401.07
593.70	22795.20
593.90	23214.46
594.11	22995.99
594.31	23060.62
594.51	22993.04
594.71	22915.62
594.92	22858.69
595.12	22692.23
595.32	22622.44
595.52	22661.76
595.72	22329.17
595.93	22644.64
596.13	22393.88
596.33	22320.48
596.53	22463.19
596.73	22314.59
596.94	22206.53
597.14	22391.02
597.34	22229.06
597.54	22376.84
597.74	22252.74
597.95	22298.04
598.15	22226.11
598.35	22208.83
598.55	22144.69
598.75	22108.40
598.96	22195.97
599.16	22012.31
599.36	22075.55
599.56	22131.82
599.76	21973.48
599.97	22200.64
600.17	21993.22
600.37	22078.66
600.57	21820.53
600.77	22253.72
600.97	21964.96
601.18	22238.16
601.38	21973.64
601.58	22025.41
601.78	21838.56
601.98	21740.66
602.18	21754.83
602.39	21950.29
602.59	21894.42
602.79	21726.33
602.99	21869.85
603.19	21986.09
603.39	21904.50
603.60	21993.05
603.80	22036.39
604.00	21956.76
604.20	21950.95
604.40	21993.96
604.60	21777.94
604.80	21795.30
605.01	21873.78
605.21	21811.36
605.41	21780.56
605.61	21806.28
605.81	21907.29
606.01	22113.48
606.21	21882.96
606.42	22110.53
606.62	21979.37
606.82	22188.68
607.02	22101.43
607.22	22130.84
607.42	22218.00
607.62	21904.01
607.82	21910.56
608.03	22023.20
608.23	22035.00
608.43	22061.70
608.63	22244.22
