SpectraSuite Data File
++++++++++++++++++++++++++++++++++++
Date: Tue Sep 20 12:01:49 EDT 2022
User: Laboratoire
Dark Spectrum Present: No
Reference Spectrum Present: No
Number of Sampled Component Spectra: 1
Spectrometers: FLMT00174
Integration Time (usec): 15000 (FLMT00174)
Spectra Averaged: 25 (FLMT00174)
Boxcar Smoothing: 0 (FLMT00174)
Correct for Electrical Dark: No (FLMT00174)
Strobe/Lamp Enabled: No (FLMT00174)
Correct for Detector Non-linearity: No (FLMT00174)
Correct for Stray Light: No (FLMT00174)
Number of Pixels in Processed Spectrum: 3648
>>>>>Begin Processed Spectral Data<<<<<
345.74	3147.89
345.96	3147.89
346.18	3147.89
346.39	3168.29
346.61	3214.25
346.83	3230.22
347.05	3215.80
347.27	3209.74
347.49	3223.91
347.71	3234.64
347.93	3228.58
348.15	3222.44
348.36	3210.72
348.58	3214.90
348.80	3199.42
349.02	3213.51
349.24	3225.14
349.46	3288.14
349.68	3300.59
349.90	3317.30
350.11	3285.92
350.33	3315.42
350.55	3292.48
350.77	3303.29
350.99	3273.39
351.21	3304.19
351.43	3272.82
351.65	3312.38
351.86	3287.89
352.08	3295.51
352.30	3285.02
352.52	3289.04
352.74	3286.42
352.96	3281.99
353.18	3308.21
353.39	3295.67
353.61	3282.07
353.83	3311.81
354.05	3312.88
354.27	3295.67
354.49	3300.92
354.70	3305.67
354.92	3297.80
355.14	3293.87
355.36	3279.94
355.58	3299.52
355.80	3282.40
356.02	3307.96
356.23	3287.73
356.45	3298.54
356.67	3287.48
356.89	3310.75
357.11	3287.24
357.33	3312.14
357.54	3292.56
357.76	3304.03
357.98	3286.42
358.20	3305.50
358.42	3288.79
358.63	3288.38
358.85	3298.21
359.07	3321.48
359.29	3302.23
359.51	3301.33
359.73	3308.21
359.94	3292.81
360.16	3272.33
360.38	3293.54
360.60	3280.35
360.82	3320.82
361.03	3302.31
361.25	3305.83
361.47	3308.53
361.69	3307.80
361.91	3303.46
362.12	3293.38
362.34	3292.81
362.56	3327.46
362.78	3296.08
363.00	3323.94
363.21	3298.38
363.43	3318.36
363.65	3277.65
363.87	3306.81
364.09	3304.85
364.30	3287.73
364.52	3303.29
364.74	3322.21
364.96	3300.51
365.17	3304.19
365.39	3291.66
365.61	3294.44
365.83	3293.87
366.05	3315.17
366.26	3299.36
366.48	3294.03
366.70	3300.75
366.92	3304.52
367.13	3283.71
367.35	3287.32
367.57	3319.92
367.79	3326.72
368.01	3313.20
368.22	3318.53
368.44	3290.10
368.66	3306.16
368.88	3309.44
369.09	3295.35
369.31	3299.28
369.53	3297.56
369.75	3294.94
369.96	3321.23
370.18	3302.88
370.40	3312.96
370.62	3310.17
370.83	3292.23
371.05	3327.70
371.27	3334.91
371.49	3295.59
371.70	3323.20
371.92	3310.66
372.14	3298.21
372.36	3302.96
372.57	3315.17
372.79	3305.42
373.01	3308.94
373.22	3308.45
373.44	3314.27
373.66	3293.05
373.88	3322.62
374.09	3305.91
374.31	3297.48
374.53	3294.85
374.75	3334.91
374.96	3303.70
375.18	3329.34
375.40	3312.88
375.61	3311.98
375.83	3316.40
376.05	3321.31
376.27	3343.02
376.48	3303.05
376.70	3297.72
376.92	3314.92
377.13	3319.92
377.35	3292.23
377.57	3309.35
377.79	3305.01
378.00	3318.20
378.22	3332.13
378.44	3295.76
378.65	3343.84
378.87	3305.09
379.09	3328.03
379.30	3331.88
379.52	3320.49
379.74	3339.83
379.96	3316.97
380.17	3302.88
380.39	3334.83
380.61	3320.17
380.82	3335.81
381.04	3302.06
381.26	3345.81
381.47	3329.51
381.69	3362.19
381.91	3337.53
382.12	3353.51
382.34	3346.22
382.56	3355.72
382.77	3346.30
382.99	3352.28
383.21	3339.75
383.42	3350.39
383.64	3351.79
383.86	3344.91
384.07	3353.26
384.29	3336.06
384.51	3352.28
384.72	3363.26
384.94	3340.89
385.16	3364.16
385.37	3340.40
385.59	3337.04
385.81	3366.04
386.02	3347.77
386.24	3357.93
386.46	3341.14
386.67	3352.03
386.89	3380.54
387.11	3381.52
387.32	3361.13
387.54	3349.49
387.76	3372.76
387.97	3381.85
388.19	3391.44
388.40	3366.86
388.62	3371.04
388.84	3382.18
389.05	3379.31
389.27	3359.82
389.49	3384.72
389.70	3361.04
389.92	3367.76
390.14	3359.08
390.35	3376.94
390.57	3359.90
390.78	3364.40
391.00	3355.64
391.22	3369.65
391.43	3364.73
391.65	3393.57
391.86	3370.38
392.08	3388.08
392.30	3372.84
392.51	3385.62
392.73	3399.71
392.95	3391.44
393.16	3363.26
393.38	3401.27
393.59	3372.84
393.81	3393.73
394.03	3379.23
394.24	3384.96
394.46	3373.99
394.67	3402.00
394.89	3382.67
395.11	3424.86
395.32	3429.12
395.54	3426.09
395.75	3419.94
395.97	3403.81
396.19	3405.36
396.40	3428.87
396.62	3415.11
396.83	3411.51
397.05	3418.22
397.26	3426.33
397.48	3427.97
397.70	3426.42
397.91	3450.50
398.13	3440.18
398.34	3443.78
398.56	3459.43
398.78	3470.49
398.99	3490.07
399.21	3438.54
399.42	3479.91
399.64	3452.55
399.85	3471.96
400.07	3478.35
400.29	3492.69
400.50	3484.66
400.72	3521.28
400.93	3493.26
401.15	3481.63
401.36	3501.70
401.58	3539.14
401.79	3534.30
402.01	3527.50
402.23	3522.26
402.44	3566.09
402.66	3551.92
402.87	3565.19
403.09	3559.37
403.30	3559.29
403.52	3534.79
403.73	3572.89
403.95	3565.51
404.16	3584.85
404.38	3573.62
404.60	3586.57
404.81	3592.38
405.03	3612.13
405.24	3603.52
405.46	3611.63
405.67	3601.89
405.89	3629.41
406.10	3622.53
406.32	3618.84
406.53	3624.17
406.75	3658.57
406.96	3630.48
407.18	3632.44
407.39	3616.88
407.61	3648.33
407.82	3637.19
408.04	3676.02
408.25	3632.69
408.47	3650.87
408.68	3669.80
408.90	3628.26
409.12	3651.86
409.33	3668.40
409.55	3631.79
409.76	3654.40
409.98	3636.95
410.19	3671.35
410.41	3662.83
410.62	3677.99
410.84	3641.37
411.05	3655.30
411.27	3665.04
411.48	3661.60
411.70	3668.16
411.91	3649.40
412.12	3659.72
412.34	3656.69
412.55	3663.57
412.77	3656.36
412.98	3663.98
413.20	3640.39
413.41	3660.29
413.63	3677.99
413.84	3659.97
414.06	3675.12
414.27	3652.18
414.49	3660.38
414.70	3673.07
414.92	3680.86
415.13	3673.97
415.35	3682.82
415.56	3681.26
415.78	3687.33
415.99	3694.21
416.21	3696.26
416.42	3706.09
416.63	3711.98
416.85	3707.56
417.06	3726.16
417.28	3696.91
417.49	3733.45
417.71	3723.62
417.92	3723.13
418.14	3736.81
418.35	3753.44
418.57	3749.83
418.78	3764.58
418.99	3755.57
419.21	3783.42
419.42	3769.49
419.64	3763.18
419.85	3757.29
420.07	3827.98
420.28	3791.94
420.50	3817.17
420.71	3808.81
420.92	3831.09
421.14	3842.89
421.35	3846.17
421.57	3847.89
421.78	3858.62
422.00	3875.25
422.21	3889.34
422.42	3882.05
422.64	3894.91
422.85	3931.69
423.07	3924.24
423.28	3929.64
423.50	3979.86
423.71	3973.71
423.92	3997.63
424.14	3984.04
424.35	4016.39
424.57	4020.49
424.78	4065.96
424.99	4079.31
425.21	4057.85
425.42	4072.18
425.64	4085.78
425.85	4090.20
426.06	4113.63
426.28	4125.84
426.49	4175.23
426.71	4179.25
426.92	4180.64
427.13	4216.19
427.35	4255.68
427.56	4272.96
427.78	4269.52
427.99	4282.38
428.20	4312.69
428.42	4319.41
428.63	4355.95
428.84	4306.55
429.06	4371.10
429.27	4398.95
429.49	4387.57
429.70	4437.21
429.91	4422.79
430.13	4424.43
430.34	4427.46
430.56	4461.38
430.77	4487.35
430.98	4444.99
431.20	4515.36
431.41	4513.97
431.62	4519.05
431.84	4508.64
432.05	4525.27
432.26	4526.42
432.48	4515.77
432.69	4585.32
432.91	4559.35
433.12	4573.44
433.33	4565.66
433.55	4618.01
433.76	4602.44
433.97	4566.89
434.19	4599.33
434.40	4618.66
434.61	4599.98
434.83	4605.14
435.04	4586.71
435.25	4606.54
435.47	4602.85
435.68	4575.98
435.89	4619.15
436.11	4598.67
436.32	4598.59
436.53	4609.57
436.75	4590.40
436.96	4619.07
437.17	4586.06
437.39	4582.13
437.60	4597.77
437.81	4604.00
438.03	4593.35
438.24	4596.30
438.45	4638.24
438.67	4582.13
438.88	4629.56
439.09	4641.68
439.31	4612.19
439.52	4599.66
439.73	4596.95
439.94	4577.62
440.16	4607.27
440.37	4587.20
440.58	4622.35
440.80	4613.25
441.01	4589.09
441.22	4664.37
441.44	4630.79
441.65	4615.47
441.86	4605.39
442.08	4648.15
442.29	4619.56
442.50	4640.62
442.71	4628.82
442.93	4631.69
443.14	4625.13
443.35	4669.78
443.57	4658.56
443.78	4656.26
443.99	4649.79
444.20	4666.99
444.42	4689.19
444.63	4709.51
444.84	4698.29
445.06	4728.10
445.27	4705.41
445.48	4721.88
445.69	4733.02
445.91	4716.47
446.12	4698.70
446.33	4752.60
446.54	4781.93
446.76	4754.89
446.97	4777.01
447.18	4779.14
447.39	4825.83
447.61	4830.75
447.82	4857.86
448.03	4832.22
448.25	4882.19
448.46	4894.81
448.67	4934.95
448.88	4904.89
449.10	4958.54
449.31	4950.27
449.52	4961.16
449.73	4977.30
449.95	5055.37
450.16	5012.44
450.37	5086.50
450.58	5144.74
450.79	5080.52
451.01	5084.29
451.22	5107.88
451.43	5146.63
451.64	5214.13
451.86	5204.63
452.07	5237.56
452.28	5269.67
452.49	5335.94
452.71	5316.36
452.92	5328.98
453.13	5355.77
453.34	5397.30
453.55	5462.10
453.77	5485.44
453.98	5500.93
454.19	5504.20
454.40	5558.43
454.62	5617.91
454.83	5584.89
455.04	5690.65
455.25	5646.09
455.46	5825.82
455.68	5782.23
455.89	5794.11
456.10	5837.78
456.31	5855.63
456.52	5947.06
456.74	5958.44
456.95	6066.74
457.16	6030.94
457.37	6096.39
457.58	6146.53
457.80	6109.34
458.01	6129.32
458.22	6350.59
458.43	6272.93
458.64	6313.72
458.86	6316.75
459.07	6407.28
459.28	6396.05
459.49	6474.78
459.70	6615.76
459.91	6626.08
460.13	6612.89
460.34	6648.69
460.55	6626.98
460.76	6780.74
460.97	6758.62
461.19	6795.24
461.40	6957.77
461.61	6896.66
461.82	6929.67
462.03	6984.06
462.24	6966.37
462.46	6997.09
462.67	7012.57
462.88	7087.20
463.09	7126.19
463.30	7189.60
463.51	7072.95
463.72	7259.48
463.94	7254.31
464.15	7282.33
464.36	7246.29
464.57	7374.49
464.78	7355.98
464.99	7396.44
465.20	7368.02
465.42	7443.87
465.63	7442.48
465.84	7424.30
466.05	7563.48
466.26	7543.00
466.47	7572.65
466.68	7535.79
466.90	7642.77
467.11	7566.59
467.32	7625.00
467.53	7704.21
467.74	7564.87
467.95	7639.99
468.16	7684.14
468.37	7739.77
468.59	7661.86
468.80	7798.66
469.01	7674.89
469.22	7743.04
469.43	7880.99
469.64	7734.52
469.85	7830.53
470.06	7772.04
470.28	7884.02
470.49	7718.47
470.70	7807.51
470.91	7904.91
471.12	7787.44
471.33	7911.39
471.54	7850.93
471.75	7883.37
471.96	7991.42
472.17	7941.37
472.39	8050.89
472.60	7867.39
472.81	8078.09
473.02	7976.84
473.23	8051.71
473.44	8072.93
473.65	8032.95
473.86	8046.31
474.07	8035.98
474.28	8075.71
474.49	8207.11
474.71	8116.35
474.92	8194.09
475.13	8112.74
475.34	8155.09
475.55	8133.47
475.76	8190.56
475.97	8323.60
476.18	8263.55
476.39	8311.56
476.60	8368.74
476.81	8339.66
477.02	8394.46
477.23	8362.76
477.44	8378.24
477.65	8466.63
477.87	8530.53
478.08	8520.61
478.29	8537.49
478.50	8663.24
478.71	8575.50
478.92	8658.98
479.13	8635.96
479.34	8665.61
479.55	8728.20
479.76	8730.41
479.97	8766.37
480.18	8934.22
480.39	8801.35
480.60	8958.72
480.81	9000.58
481.02	8999.35
481.23	9018.19
481.44	9128.29
481.65	9204.39
481.86	9305.56
482.07	9162.04
482.28	9424.34
482.49	9354.79
482.71	9354.47
482.92	9430.57
483.13	9557.79
483.34	9530.92
483.55	9594.73
483.76	9622.75
483.97	9757.67
484.18	9770.53
484.39	9845.73
484.60	9851.06
484.81	10009.41
485.02	9946.25
485.23	10079.94
485.44	10144.00
485.65	10240.91
485.86	10196.10
486.07	10433.91
486.28	10456.19
486.49	10500.67
486.70	10609.95
486.91	10696.05
487.12	10684.74
487.33	10720.46
487.54	10910.59
487.75	10991.86
487.96	11030.03
488.17	11003.33
488.38	11188.71
488.59	11274.97
488.80	11374.09
489.01	11426.35
489.22	11617.72
489.43	11618.04
489.64	11548.99
489.85	11880.35
490.06	11778.20
490.26	11953.83
490.47	11953.58
490.68	12171.41
490.89	12291.74
491.10	12260.94
491.31	12464.02
491.52	12674.96
491.73	12671.44
491.94	12719.44
492.15	12964.54
492.36	13005.34
492.57	13094.63
492.78	13136.49
492.99	13310.08
493.20	13446.14
493.41	13478.58
493.62	13584.18
493.83	13645.21
494.04	13817.24
494.25	14070.61
494.46	14117.88
494.67	14057.18
494.88	14342.01
495.08	14436.87
495.29	14576.95
495.50	14744.31
495.71	14766.67
495.92	14991.95
496.13	15062.56
496.34	15079.69
496.55	15289.32
496.76	15529.91
496.97	15424.48
497.18	15676.14
497.39	15705.38
497.60	16012.66
497.81	15911.49
498.02	16118.01
498.22	16052.96
498.43	16350.98
498.64	16513.67
498.85	16586.25
499.06	16648.35
499.27	16980.86
499.48	16708.89
499.69	17016.65
499.90	17052.29
500.11	17307.38
500.32	17510.79
500.52	17402.66
500.73	17749.25
500.94	17848.21
501.15	17923.82
501.36	17988.29
501.57	18002.87
501.78	18189.24
501.99	18375.36
502.20	18443.35
502.41	18515.36
502.61	18532.56
502.82	18757.76
503.03	18610.71
503.24	18951.90
503.45	18814.93
503.66	19016.29
503.87	19060.77
504.08	19268.52
504.28	19222.89
504.49	19340.36
504.70	19361.01
504.91	19490.11
505.12	19421.71
505.33	19700.80
505.54	19664.84
505.75	19653.78
505.95	19819.59
506.16	19751.92
506.37	19723.41
506.58	19957.29
506.79	19752.99
507.00	19988.58
507.21	19853.09
507.41	19844.33
507.62	19920.84
507.83	20184.21
508.04	19930.34
508.25	20155.21
508.46	19964.01
508.67	20239.75
508.87	20069.77
509.08	20289.72
509.29	20121.13
509.50	20129.40
509.71	20159.63
509.92	20240.98
510.12	20032.17
510.33	20116.21
510.54	20044.04
510.75	20113.10
510.96	20230.16
511.17	20265.14
511.37	20119.65
511.58	20130.14
511.79	20012.42
512.00	19987.11
512.21	20159.63
512.42	20031.59
512.62	20026.02
512.83	20151.60
513.04	19988.01
513.25	20136.20
513.46	19691.06
513.66	20150.21
513.87	19951.15
514.08	20040.28
514.29	19876.60
514.50	19766.91
514.71	19872.59
514.91	19692.12
515.12	19674.26
515.33	19811.07
515.54	19621.42
515.75	19754.13
515.95	19505.84
516.16	19449.07
516.37	19530.82
516.58	19554.50
516.78	19388.53
516.99	19470.94
517.20	19399.92
517.41	19328.07
517.62	19363.63
517.82	19270.16
518.03	19345.93
518.24	19470.45
518.45	19120.74
518.66	19248.53
518.86	19075.44
519.07	19246.56
519.28	18923.97
519.49	19139.50
519.69	19115.66
519.90	19059.79
520.11	19020.14
520.32	18963.94
520.52	19082.97
520.73	18877.85
520.94	19062.17
521.15	19009.74
521.36	18780.61
521.56	19064.70
521.77	18768.98
521.98	18947.15
522.19	18696.32
522.39	18835.91
522.60	18718.27
522.81	18714.01
523.02	18606.86
523.22	18784.38
523.43	18813.79
523.64	18735.47
523.84	18691.57
524.05	18775.29
524.26	18835.41
524.47	18679.11
524.67	18697.38
524.88	18786.92
525.09	18851.22
525.30	18668.87
525.50	18714.26
525.71	18720.07
525.92	18718.68
526.13	18874.16
526.33	18747.52
526.54	18605.30
526.75	18718.19
526.95	18857.78
527.16	18545.09
527.37	18795.93
527.58	18871.79
527.78	18805.84
527.99	18956.16
528.20	19001.87
528.40	18846.31
528.61	18855.07
528.82	18974.84
529.03	18965.34
529.23	18928.72
529.44	19086.09
529.65	19094.69
529.85	19110.83
530.06	19043.41
530.27	19092.07
530.47	18937.98
530.68	19319.39
530.89	19025.06
531.09	19292.19
531.30	19251.07
531.51	19196.35
531.72	19478.56
531.92	19388.78
532.13	19547.37
532.34	19540.49
532.54	19508.79
532.75	19582.68
532.96	19580.06
533.16	19740.62
533.37	19866.44
533.58	19788.87
533.78	19943.04
533.99	19998.33
534.20	19804.92
534.40	20010.05
534.61	20089.02
534.82	20190.68
535.02	20256.54
535.23	20276.61
535.44	20478.54
535.64	20397.28
535.85	20529.66
536.06	20588.72
536.26	20617.39
536.47	20667.85
536.68	20930.32
536.88	20719.55
537.09	20999.46
537.29	20907.55
537.50	21342.54
537.71	21111.44
537.91	21360.48
538.12	21482.45
538.33	21367.44
538.53	21580.35
538.74	21667.35
538.95	21721.08
539.15	21650.06
539.36	21884.02
539.56	22102.25
539.77	21973.23
539.98	22051.38
540.18	22237.66
540.39	22253.31
540.60	22452.21
540.80	22549.04
541.01	22622.60
541.21	22752.93
541.42	22948.96
541.63	22966.74
541.83	23151.39
542.04	23223.72
542.25	23283.68
542.45	23437.86
542.66	23496.43
542.86	23750.95
543.07	23381.74
543.28	23939.53
543.48	23934.12
543.69	24128.43
543.89	24138.59
544.10	24515.41
544.31	24486.42
544.51	24529.01
544.72	24681.22
544.92	24759.70
545.13	25094.91
545.33	25158.97
545.54	25195.42
545.75	25450.44
545.95	25361.23
546.16	25527.77
546.36	25924.50
546.57	25520.15
546.78	25168.14
546.98	25634.75
547.19	25331.33
547.39	26014.61
547.60	26313.04
547.80	26665.62
548.01	26798.57
548.22	26658.74
548.42	26926.69
548.63	27150.33
548.83	27130.34
549.04	27368.89
549.24	27291.56
549.45	27603.51
549.65	27900.22
549.86	27629.72
550.07	27881.13
550.27	28211.83
550.48	28318.74
550.68	28336.92
550.89	28409.01
551.09	28639.94
551.30	28646.82
551.50	28939.52
551.71	28935.26
551.91	28921.17
552.12	29223.86
552.33	29475.51
552.53	29318.56
552.74	29702.76
552.94	29866.84
553.15	29698.82
553.35	29949.90
553.56	29795.00
553.76	30159.86
553.97	30035.67
554.17	30258.82
554.38	30697.41
554.58	30471.89
554.79	30778.19
554.99	30579.04
555.20	30645.64
555.40	31087.76
555.61	30855.93
555.81	30746.32
556.02	31343.92
556.22	31345.14
556.43	31189.01
556.63	31308.45
556.84	31201.30
557.04	31719.35
557.25	31367.84
557.45	31607.28
557.66	31526.59
557.86	31537.33
558.07	31969.69
558.27	31724.84
558.48	31819.62
558.68	31880.48
558.89	32004.34
559.09	32105.68
559.30	31966.99
559.50	32183.67
559.71	31913.01
559.91	32336.53
560.12	32071.19
560.32	32137.46
560.53	32239.37
560.73	32126.40
560.94	32375.27
561.14	32132.38
561.35	32602.35
561.55	32336.28
561.76	32479.56
561.96	32101.66
562.17	32367.00
562.37	32524.94
562.57	32354.63
562.78	32222.90
562.98	32377.40
563.19	32377.98
563.39	32425.41
563.60	32417.05
563.80	32093.64
564.01	32448.92
564.21	32184.07
564.42	32093.72
564.62	32257.88
564.82	32336.94
565.03	32047.76
565.23	32170.97
565.44	32187.60
565.64	32013.85
565.85	32098.06
566.05	31964.53
566.25	32139.35
566.46	31752.53
566.66	31905.80
566.87	31876.06
567.07	31703.38
567.28	31756.21
567.48	31821.58
567.68	31294.36
567.89	31847.88
568.09	31450.74
568.30	31384.96
568.50	31581.23
568.71	31346.05
568.91	31366.77
569.11	31182.86
569.32	31158.94
569.52	31200.80
569.73	30742.55
569.93	31083.82
570.13	30832.58
570.34	30738.37
570.54	30913.43
570.75	30760.00
570.95	30721.82
571.15	30551.35
571.36	30783.43
571.56	30398.41
571.77	30407.42
571.97	30007.41
572.17	30441.74
572.38	30218.76
572.58	30257.59
572.79	30012.24
572.99	30040.34
573.19	29867.90
573.40	29758.46
573.60	29793.28
573.81	29638.86
574.01	29628.70
574.21	29464.78
574.42	29371.23
574.62	29252.45
574.82	29369.59
575.03	29069.36
575.23	29286.94
575.43	29021.36
575.64	28926.99
575.84	29089.84
576.05	28742.01
576.25	28850.23
576.45	28690.98
576.66	28938.54
576.86	28565.97
577.06	28753.65
577.27	28625.77
577.47	28537.87
577.67	28352.49
577.88	28014.74
578.08	28336.19
578.28	28259.68
578.49	28077.82
578.69	28084.86
578.89	27901.61
579.10	27888.01
579.30	28201.02
579.50	27857.04
579.71	27559.68
579.91	27908.65
580.11	27609.40
580.32	27539.12
580.52	27372.49
580.72	27701.23
580.93	27361.27
581.13	27352.92
581.33	27503.40
581.54	27221.68
581.74	27222.09
581.94	27206.94
582.15	27229.22
582.35	27039.33
582.55	27090.69
582.76	26947.91
582.96	27156.88
583.16	27020.90
583.37	27041.63
583.57	26810.12
583.77	26971.26
583.97	26447.47
584.18	26966.51
584.38	26863.04
584.58	26572.23
584.79	26782.76
584.99	26710.51
585.19	26644.48
585.40	26557.32
585.60	26731.97
585.80	26499.98
586.00	26574.44
586.21	26477.37
586.41	26471.47
586.61	26580.34
586.82	26459.18
587.02	26445.09
587.22	26621.46
587.42	26325.66
587.63	26589.19
587.83	26239.39
588.03	26266.51
588.23	26166.98
588.44	26304.68
588.64	26178.53
588.84	26333.52
589.05	26421.66
589.25	26402.66
589.45	26435.67
589.65	26220.88
589.86	26423.06
590.06	26353.75
590.26	26212.36
590.46	26390.70
590.67	26029.19
590.87	26394.22
591.07	26469.91
591.27	26199.09
591.48	26377.67
591.68	26019.52
591.88	26556.58
592.08	26145.43
592.29	26406.02
592.49	26289.86
592.69	26458.12
592.89	26303.86
593.10	26339.83
593.30	26361.37
593.50	26602.79
593.70	26224.81
593.90	26487.04
594.11	26559.94
594.31	26545.36
594.51	26718.46
594.71	26678.15
594.92	26649.56
595.12	26542.33
595.32	26619.50
595.52	26741.15
595.72	26370.14
595.93	26760.73
596.13	26701.58
596.33	26577.23
596.53	26895.97
596.73	26876.72
596.94	26838.88
597.14	26988.71
597.34	26881.39
597.54	27172.78
597.74	26967.73
597.95	27066.20
598.15	27094.79
598.35	27198.01
598.55	27323.59
598.75	27180.89
598.96	27541.98
599.16	27334.73
599.36	27431.80
599.56	27415.26
599.76	27432.46
599.97	27587.45
600.17	27613.17
600.37	27708.36
600.57	27393.06
600.77	27857.29
600.97	27734.82
601.18	28090.43
601.38	27844.18
601.58	28061.60
601.78	28044.97
601.98	28001.30
602.18	28216.91
602.39	28377.64
602.59	28327.50
602.79	28390.34
602.99	28398.77
603.19	28444.57
603.39	28474.88
603.60	28573.26
603.80	28687.37
604.00	28680.49
604.20	28776.99
604.40	28954.51
604.60	28942.22
604.80	28965.81
605.01	29198.71
605.21	29148.00
605.41	29201.00
605.61	29116.79
605.81	29316.26
606.01	29537.69
606.21	29392.04
606.42	29679.33
606.62	29586.76
606.82	29929.75
607.02	29817.77
607.22	29980.21
607.42	30257.35
607.62	30033.79
607.82	30181.82
608.03	30275.70
608.23	30247.02
608.43	30195.09
608.63	30607.38
608.83	30602.47
609.03	30660.30
