SpectraSuite Data File
++++++++++++++++++++++++++++++++++++
Date: Tue Sep 20 11:55:12 EDT 2022
User: Laboratoire
Dark Spectrum Present: No
Reference Spectrum Present: No
Number of Sampled Component Spectra: 1
Spectrometers: FLMT00174
Integration Time (usec): 15000 (FLMT00174)
Spectra Averaged: 25 (FLMT00174)
Boxcar Smoothing: 0 (FLMT00174)
Correct for Electrical Dark: No (FLMT00174)
Strobe/Lamp Enabled: No (FLMT00174)
Correct for Detector Non-linearity: No (FLMT00174)
Correct for Stray Light: No (FLMT00174)
Number of Pixels in Processed Spectrum: 3648
>>>>>Begin Processed Spectral Data<<<<<
345.74	3148.87
345.96	3148.87
346.18	3148.87
346.39	3171.73
346.61	3197.86
346.83	3208.92
347.05	3196.39
347.27	3205.64
347.49	3217.03
347.71	3211.79
347.93	3206.05
348.15	3218.42
348.36	3216.46
348.58	3221.78
348.80	3199.83
349.02	3211.05
349.24	3217.36
349.46	3314.19
349.68	3348.43
349.90	3350.39
350.11	3335.40
350.33	3339.34
350.55	3322.05
350.77	3343.68
350.99	3324.75
351.21	3338.52
351.43	3322.13
351.65	3351.38
351.86	3325.00
352.08	3348.76
352.30	3307.63
352.52	3331.31
352.74	3328.93
352.96	3310.42
353.18	3344.50
353.39	3323.28
353.61	3328.77
353.83	3348.84
354.05	3349.00
354.27	3346.87
354.49	3329.26
354.70	3361.95
354.92	3344.82
355.14	3315.99
355.36	3325.90
355.58	3332.70
355.80	3330.00
356.02	3344.82
356.23	3339.09
356.45	3339.58
356.67	3337.45
356.89	3367.93
357.11	3360.80
357.33	3348.76
357.54	3323.12
357.76	3352.93
357.98	3335.98
358.20	3344.99
358.42	3319.35
358.63	3344.17
358.85	3348.35
359.07	3354.82
359.29	3318.94
359.51	3342.12
359.73	3321.23
359.94	3349.33
360.16	3311.32
360.38	3326.88
360.60	3314.35
360.82	3348.92
361.03	3344.25
361.25	3347.12
361.47	3363.75
361.69	3345.56
361.91	3344.82
362.12	3346.71
362.34	3329.75
362.56	3350.97
362.78	3342.45
363.00	3348.10
363.21	3329.51
363.43	3354.25
363.65	3335.49
363.87	3359.41
364.09	3373.91
364.30	3323.61
364.52	3343.60
364.74	3358.75
364.96	3354.25
365.17	3346.14
365.39	3358.59
365.61	3338.43
365.83	3337.70
366.05	3354.25
366.26	3345.81
366.48	3343.60
366.70	3355.06
366.92	3348.51
367.13	3344.82
367.35	3349.58
367.57	3356.70
367.79	3357.03
368.01	3367.19
368.22	3370.96
368.44	3344.74
368.66	3367.60
368.88	3365.88
369.09	3347.61
369.31	3375.63
369.53	3365.96
369.75	3340.81
369.96	3368.58
370.18	3353.43
370.40	3380.05
370.62	3351.05
370.83	3343.35
371.05	3378.98
371.27	3379.64
371.49	3364.24
371.70	3378.90
371.92	3358.75
372.14	3356.46
372.36	3372.27
372.57	3370.06
372.79	3368.42
373.01	3375.87
373.22	3369.48
373.44	3364.65
373.66	3387.18
373.88	3372.84
374.09	3367.02
374.31	3364.48
374.53	3358.91
374.75	3400.28
374.96	3372.02
375.18	3385.29
375.40	3377.35
375.61	3369.89
375.83	3350.89
376.05	3354.98
376.27	3385.13
376.48	3366.45
376.70	3376.94
376.92	3365.63
377.13	3385.95
377.35	3369.32
377.57	3351.79
377.79	3372.10
378.00	3384.96
378.22	3379.64
378.44	3384.88
378.65	3407.74
378.87	3379.23
379.09	3401.68
379.30	3363.91
379.52	3402.25
379.74	3370.79
379.96	3401.92
380.17	3390.45
380.39	3397.66
380.61	3371.94
380.82	3395.94
381.04	3404.54
381.26	3409.29
381.47	3406.18
381.69	3414.70
381.91	3393.57
382.12	3411.18
382.34	3423.79
382.56	3415.11
382.77	3402.33
382.99	3402.74
383.21	3402.09
383.42	3420.11
383.64	3422.81
383.86	3430.68
384.07	3426.42
384.29	3428.05
384.51	3411.01
384.72	3437.80
384.94	3418.47
385.16	3421.58
385.37	3409.79
385.59	3426.25
385.81	3427.32
386.02	3441.08
386.24	3449.35
386.46	3441.08
386.67	3437.64
386.89	3462.46
387.11	3461.15
387.32	3441.32
387.54	3465.49
387.76	3477.86
387.97	3471.14
388.19	3475.40
388.40	3464.92
388.62	3450.34
388.84	3479.17
389.05	3471.06
389.27	3481.55
389.49	3497.36
389.70	3468.03
389.92	3492.11
390.14	3494.65
390.35	3487.69
390.57	3483.51
390.78	3495.64
391.00	3491.87
391.22	3489.74
391.43	3491.05
391.65	3521.52
391.86	3533.57
392.08	3514.72
392.30	3519.15
392.51	3530.70
392.73	3559.53
392.95	3519.48
393.16	3513.82
393.38	3555.44
393.59	3515.95
393.81	3557.32
394.03	3563.22
394.24	3545.61
394.46	3541.92
394.67	3565.19
394.89	3551.59
395.11	3557.08
395.32	3580.91
395.54	3583.78
395.75	3567.64
395.97	3571.33
396.19	3581.00
396.40	3607.54
396.62	3605.65
396.83	3595.33
397.05	3601.72
397.26	3603.03
397.48	3615.48
397.70	3608.19
397.91	3619.66
398.13	3610.98
398.34	3623.51
398.56	3666.27
398.78	3646.94
398.99	3690.44
399.21	3631.62
399.42	3688.15
399.64	3661.85
399.85	3666.27
400.07	3675.04
400.29	3716.74
400.50	3677.74
400.72	3699.86
400.93	3694.70
401.15	3692.16
401.36	3695.76
401.58	3716.90
401.79	3706.09
402.01	3750.40
402.23	3728.12
402.44	3754.91
402.66	3738.20
402.87	3753.44
403.09	3747.70
403.30	3759.33
403.52	3745.57
403.73	3733.77
403.95	3762.45
404.16	3790.79
404.38	3788.82
404.60	3782.43
404.81	3804.31
405.03	3812.66
405.24	3815.12
405.46	3830.44
405.67	3807.34
405.89	3836.58
406.10	3832.16
406.32	3848.13
406.53	3876.89
406.75	3879.75
406.96	3860.42
407.18	3896.71
407.39	3877.62
407.61	3894.99
407.82	3894.42
408.04	3918.67
408.25	3916.37
408.47	3911.95
408.68	3933.08
408.90	3935.38
409.12	3946.35
409.33	3968.64
409.55	3937.92
409.76	3967.57
409.98	3952.33
410.19	3992.31
410.41	3978.38
410.62	4006.97
410.84	3994.93
411.05	4035.65
411.27	4036.96
411.48	4037.04
411.70	4038.43
411.91	4052.36
412.12	4056.78
412.34	4056.12
412.55	4080.05
412.77	4060.79
412.98	4084.06
413.20	4099.21
413.41	4108.39
413.63	4088.56
413.84	4112.32
414.06	4141.65
414.27	4145.66
414.49	4162.21
414.70	4167.29
414.92	4174.09
415.13	4151.81
415.35	4170.57
415.56	4189.32
415.78	4190.72
415.99	4210.95
416.21	4223.24
416.42	4260.10
416.63	4266.33
416.85	4271.65
417.06	4268.29
417.28	4249.29
417.49	4298.52
417.71	4286.23
417.92	4292.05
418.14	4300.00
418.35	4337.19
418.57	4338.91
418.78	4337.76
418.99	4341.45
419.21	4373.56
419.42	4389.29
419.64	4370.94
419.85	4386.67
420.07	4458.67
420.28	4428.86
420.50	4415.83
420.71	4441.23
420.92	4437.54
421.14	4487.26
421.35	4478.33
421.57	4478.09
421.78	4516.34
422.00	4520.93
422.21	4537.15
422.42	4539.36
422.64	4546.65
422.85	4582.37
423.07	4611.86
423.28	4603.34
423.50	4614.07
423.71	4633.98
423.92	4670.11
424.14	4653.56
424.35	4637.91
424.57	4703.45
424.78	4724.17
424.99	4705.82
425.21	4726.55
425.42	4746.45
425.64	4727.04
425.85	4763.74
426.06	4761.86
426.28	4787.25
426.49	4811.99
426.71	4831.40
426.92	4819.53
427.13	4863.93
427.35	4914.96
427.56	4898.41
427.78	4903.57
427.99	4951.33
428.20	4965.83
428.42	5001.30
428.63	5019.90
428.84	4940.68
429.06	5009.50
429.27	5033.01
429.49	5034.89
429.70	5083.63
429.91	5069.95
430.13	5103.21
430.34	5113.12
430.56	5145.81
430.77	5183.00
430.98	5126.88
431.20	5213.56
431.41	5242.39
431.62	5226.42
431.84	5237.72
432.05	5285.89
432.26	5267.95
432.48	5276.71
432.69	5339.30
432.91	5306.94
433.12	5368.38
433.33	5340.69
433.55	5448.66
433.76	5436.13
433.97	5385.99
434.19	5443.99
434.40	5512.72
434.61	5540.74
434.83	5527.88
435.04	5506.41
435.25	5555.89
435.47	5564.90
435.68	5544.59
435.89	5652.15
436.11	5611.19
436.32	5683.77
436.53	5652.97
436.75	5661.98
436.96	5695.56
437.17	5688.27
437.39	5708.10
437.60	5747.09
437.81	5774.86
438.03	5797.80
438.24	5781.99
438.45	5874.64
438.67	5830.24
438.88	5892.17
439.09	5959.83
439.31	5943.29
439.52	5995.47
439.73	5967.21
439.94	5958.20
440.16	6002.68
440.37	5988.75
440.58	6066.00
440.80	6076.49
441.01	6049.13
441.22	6203.38
441.44	6187.16
441.65	6140.30
441.86	6180.20
442.08	6229.51
442.29	6207.56
442.50	6283.41
442.71	6241.31
442.93	6297.42
443.14	6292.18
443.35	6403.75
443.57	6297.18
443.78	6400.31
443.99	6421.61
444.20	6398.76
444.42	6472.07
444.63	6485.84
444.84	6525.16
445.06	6574.39
445.27	6532.86
445.48	6521.14
445.69	6597.16
445.91	6591.10
446.12	6571.60
446.33	6654.34
446.54	6724.79
446.76	6643.69
446.97	6726.27
447.18	6714.39
447.39	6760.43
447.61	6814.58
447.82	6841.94
448.03	6806.06
448.25	6888.14
448.46	6944.58
448.67	6974.40
448.88	6939.83
449.10	7011.92
449.31	7043.87
449.52	6997.75
449.73	7050.34
449.95	7164.12
450.16	7071.96
450.37	7192.47
450.58	7353.27
450.79	7168.38
451.01	7266.03
451.22	7208.69
451.43	7263.90
451.64	7360.40
451.86	7368.67
452.07	7388.33
452.28	7472.63
452.49	7581.50
452.71	7446.50
452.92	7436.91
453.13	7546.60
453.34	7567.90
453.55	7655.55
453.77	7719.04
453.98	7695.78
454.19	7657.85
454.40	7747.14
454.62	7829.30
454.83	7729.85
455.04	7890.00
455.25	7793.18
455.46	8079.56
455.68	7948.90
455.89	7943.58
456.10	8005.92
456.31	8024.92
456.52	8090.05
456.74	8082.02
456.95	8238.73
457.16	8172.21
457.37	8303.45
457.58	8261.18
457.80	8245.78
458.01	8272.81
458.22	8617.12
458.43	8445.58
458.64	8508.49
458.86	8430.75
459.07	8528.97
459.28	8482.03
459.49	8670.03
459.70	8872.13
459.91	8782.26
460.13	8782.26
460.34	8854.52
460.55	8835.10
460.76	8947.08
460.97	8981.57
461.19	8979.44
461.40	9228.72
461.61	9090.69
461.82	9106.99
462.03	9217.09
462.24	9196.36
462.46	9198.49
462.67	9210.62
462.88	9394.85
463.09	9382.40
463.30	9529.85
463.51	9421.72
463.72	9638.72
463.94	9632.58
464.15	9691.56
464.36	9574.42
464.57	9903.24
464.78	9855.15
464.99	9926.50
465.20	9872.60
465.42	10032.43
465.63	10060.69
465.84	10050.12
466.05	10192.66
466.26	10271.63
466.47	10324.14
466.68	10269.01
466.90	10458.24
467.11	10413.59
467.32	10546.96
467.53	10650.34
467.74	10515.83
467.95	10645.59
468.16	10818.85
468.37	10897.73
468.59	10879.79
468.80	11080.00
469.01	10935.74
469.22	11113.92
469.43	11365.49
469.64	11224.67
469.85	11371.63
470.06	11406.69
470.28	11583.97
470.49	11400.06
470.70	11590.36
470.91	11866.67
471.12	11724.78
471.33	11980.45
471.54	11939.66
471.75	11986.19
471.96	12280.19
472.17	12233.50
472.39	12486.06
472.60	12313.53
472.81	12593.29
473.02	12577.48
473.23	12752.05
473.44	12861.74
473.65	12793.74
473.86	12939.07
474.07	13035.81
474.28	13121.01
474.49	13426.97
474.71	13381.35
474.92	13512.83
475.13	13484.89
475.34	13557.39
475.55	13642.01
475.76	13736.79
475.97	14077.08
476.18	14053.57
476.39	14263.94
476.60	14364.86
476.81	14435.64
477.02	14621.84
477.23	14647.48
477.44	14699.99
477.65	14920.19
477.87	15097.87
478.08	15143.58
478.29	15194.95
478.50	15544.49
478.71	15435.38
478.92	15615.76
479.13	15716.44
479.34	15831.95
479.55	15970.80
479.76	15996.85
479.97	16073.52
480.18	16540.13
480.39	16310.92
480.60	16627.87
480.81	16793.02
481.02	16818.33
481.23	16855.68
481.44	17176.23
481.65	17329.17
481.86	17579.27
482.07	17189.26
482.28	17959.54
482.49	17711.33
482.71	17823.14
482.92	18058.82
483.13	18233.15
483.34	18170.23
483.55	18350.37
483.76	18409.35
483.97	18772.25
484.18	18727.94
484.39	18948.54
484.60	18900.70
484.81	19302.84
485.02	19208.47
485.23	19528.86
485.44	19672.38
485.65	19871.03
485.86	19783.13
486.07	20145.62
486.28	20154.63
486.49	20373.77
486.70	20566.44
486.91	20724.38
487.12	20707.91
487.33	20650.24
487.54	21113.74
487.75	21106.20
487.96	21182.96
488.17	21141.51
488.38	21506.54
488.59	21605.66
488.80	21787.85
489.01	21832.66
489.22	22195.07
489.43	22096.44
489.64	22046.88
489.85	22592.86
490.06	22275.26
490.26	22652.83
490.47	22540.44
490.68	22989.60
490.89	23177.60
491.10	22954.45
491.31	23354.95
491.52	23620.53
491.73	23561.39
491.94	23537.96
492.15	23850.89
492.36	23988.92
492.57	23941.00
492.78	24009.98
492.99	24162.67
493.20	24447.34
493.41	24432.10
493.62	24603.40
493.83	24644.52
494.04	24784.11
494.25	25125.87
494.46	25215.57
494.67	25056.90
494.88	25310.68
495.08	25427.09
495.29	25534.40
495.50	25796.54
495.71	25713.97
495.92	25997.57
496.13	26040.09
496.34	25924.42
496.55	26198.11
496.76	26570.18
496.97	26236.04
497.18	26618.19
497.39	26576.57
497.60	27009.35
497.81	26666.27
498.02	26985.76
498.22	26793.66
498.43	27284.76
498.64	27373.40
498.85	27391.34
499.06	27526.26
499.27	27889.57
499.48	27296.80
499.69	27792.25
499.90	27876.38
500.11	28070.52
500.32	28356.67
500.52	28157.77
500.73	28705.89
500.94	28696.06
501.15	28809.02
501.36	28857.44
501.57	28689.09
501.78	29016.60
501.99	29219.76
502.20	29180.93
502.41	29253.27
502.61	29227.87
502.82	29632.55
503.03	29325.27
503.24	29819.41
503.45	29628.05
503.66	30049.11
503.87	29970.22
504.08	30250.63
504.28	30138.48
504.49	30294.45
504.70	30433.06
504.91	30697.74
505.12	30445.84
505.33	30927.11
505.54	30944.73
505.75	31037.70
505.95	31263.47
506.16	31228.98
506.37	31032.95
506.58	31625.31
506.79	31241.52
507.00	31685.27
507.21	31435.26
507.41	31482.28
507.62	31631.53
507.83	32167.45
508.04	31797.34
508.25	32335.79
508.46	32023.10
508.67	32556.48
508.87	32254.93
509.08	32693.45
509.29	32622.09
509.50	32890.30
509.71	32953.29
509.92	33136.38
510.12	32876.21
510.33	33143.59
510.54	33095.83
510.75	33385.33
510.96	33542.78
511.17	33721.61
511.37	33652.63
511.58	33900.03
511.79	33782.47
512.00	33741.76
512.21	34313.14
512.42	34269.73
512.62	34380.15
512.83	34692.34
513.04	34519.58
513.25	34906.32
513.46	34259.81
513.66	35156.66
513.87	34893.86
514.08	35212.94
514.29	35114.80
514.50	35088.59
514.71	35413.15
514.91	35297.72
515.12	35364.08
515.33	35707.15
515.54	35580.67
515.75	36014.35
515.95	35748.61
516.16	35802.51
516.37	36289.76
516.58	36356.69
516.78	36200.96
516.99	36510.86
517.20	36445.90
517.41	36532.73
517.62	36802.00
517.82	36624.97
518.03	37139.67
518.24	37544.59
518.45	36985.17
518.66	37439.41
518.86	37184.97
519.07	37708.27
519.28	37053.82
519.49	37851.46
519.69	37864.40
519.90	37956.48
520.11	38065.51
520.32	38038.97
520.52	38389.58
520.73	38086.65
520.94	38648.12
521.15	38569.72
521.36	38279.49
521.56	39032.73
521.77	38485.51
521.98	39108.18
522.19	38760.35
522.39	39113.75
522.60	39022.57
522.81	39149.71
523.02	39057.63
523.22	39478.04
523.43	39577.73
523.64	39550.45
523.84	39628.77
524.05	39969.47
524.26	40008.30
524.47	39904.34
524.67	40099.80
524.88	40339.66
525.09	40588.86
525.30	40331.55
525.50	40297.64
525.71	40521.68
525.92	40645.79
526.13	40997.47
526.33	40778.50
526.54	40630.72
526.75	41058.25
526.95	41426.07
527.16	40745.98
527.37	41443.92
527.58	41617.92
527.78	41602.27
527.99	41986.06
528.20	42094.28
528.40	41933.39
528.61	41764.80
528.82	42192.99
529.03	42129.01
529.23	42077.65
529.44	42454.64
529.65	42399.83
529.85	42559.49
530.06	42492.48
530.27	42667.22
530.47	42263.52
530.68	43268.09
530.89	42463.49
531.09	43159.06
531.30	43055.35
531.51	42762.82
531.72	43403.09
531.92	43380.07
532.13	43505.74
532.34	43458.80
532.54	43496.89
532.75	43808.92
532.96	43709.06
533.16	44049.27
533.37	44253.74
533.58	43867.33
533.78	44235.22
533.99	44458.45
534.20	44060.82
534.40	44392.43
534.61	44618.85
534.82	44714.04
535.02	44832.41
535.23	44820.70
535.44	45076.04
535.64	44944.72
535.85	45116.34
536.06	45128.55
536.26	45039.83
536.47	45259.62
536.68	45893.75
536.88	45176.72
537.09	45890.23
537.29	45366.52
537.50	46212.74
537.71	45789.22
537.91	46039.48
538.12	46300.48
538.33	45869.09
538.53	46100.19
538.74	46357.66
538.95	46295.48
539.15	46208.07
539.36	46564.58
539.56	46839.75
539.77	46440.72
539.98	46522.40
540.18	46883.49
540.39	46651.66
540.60	47001.62
540.80	47266.71
541.01	47318.48
541.21	47083.37
541.42	47486.25
541.63	47300.54
541.83	47557.77
542.04	47495.43
542.25	47562.27
542.45	47742.82
542.66	47779.52
542.86	48084.75
543.07	47052.25
543.28	48079.75
543.48	47959.58
543.69	48107.36
543.89	48061.08
544.10	48599.45
544.31	48364.83
544.51	48222.37
544.72	48417.91
544.92	48459.77
545.13	48816.86
545.33	48845.69
545.54	48619.76
545.75	49002.32
545.95	48763.45
546.16	48777.45
546.36	49388.90
546.57	48513.92
546.78	47821.95
546.98	48510.07
547.19	47744.21
547.39	48905.17
547.60	49287.24
547.80	49822.90
548.01	49906.21
548.22	49434.20
548.42	49636.21
548.63	49981.50
548.83	49690.19
549.04	50068.17
549.24	49781.37
549.45	50108.96
549.65	50536.58
549.86	49802.67
550.07	50032.45
550.27	50504.22
550.48	50586.63
550.68	50461.87
550.89	50478.42
551.09	50708.53
551.30	50451.30
551.50	50799.78
551.71	50559.92
551.91	50611.12
552.12	50881.95
552.33	51237.15
552.53	50786.02
552.74	51408.60
552.94	51438.83
553.15	51128.03
553.35	51365.10
553.56	50994.67
553.76	51517.96
553.97	51136.63
554.17	51444.16
554.38	52225.33
554.58	51502.48
554.79	52135.30
554.99	51497.73
555.20	51694.99
555.40	52220.50
555.61	51932.39
555.81	51563.02
556.02	52527.53
556.22	52256.46
556.43	52037.66
556.63	52152.83
556.84	52122.20
557.04	52678.43
557.25	52004.23
557.45	52492.39
557.66	52516.23
557.86	52435.45
558.07	53076.96
558.27	52618.05
558.48	52704.48
558.68	52894.36
558.89	53018.39
559.09	53078.27
559.30	52922.71
559.50	53139.22
559.71	52659.01
559.91	53419.22
560.12	53059.27
560.32	53146.02
560.53	53387.76
560.73	53233.75
560.94	53668.41
561.14	53252.92
561.35	53851.01
561.55	53458.54
561.76	53806.86
561.96	53071.64
562.17	53755.74
562.37	53943.50
562.57	53657.44
562.78	53732.06
562.98	54116.18
563.19	54124.29
563.39	54282.56
563.60	54507.18
563.80	53819.14
564.01	54559.77
564.21	54208.91
564.42	54208.18
564.62	54455.33
564.82	54659.55
565.03	54322.62
565.23	54430.42
565.44	54624.49
565.64	54431.40
565.85	54813.39
566.05	54582.63
566.25	54836.90
566.46	54546.09
566.66	54762.52
566.87	54838.54
567.07	54868.77
567.28	54969.04
567.48	55224.71
567.68	54567.47
567.89	55561.56
568.09	54964.29
568.30	55089.13
568.50	55445.07
568.71	55299.01
568.91	55672.56
569.11	55259.85
569.32	55356.19
569.52	55595.06
569.73	54986.16
569.93	55672.80
570.13	55466.37
570.34	55324.24
570.54	55840.49
570.75	55600.22
570.95	55673.70
571.15	55561.88
571.36	56267.86
571.56	55591.95
571.77	55563.77
571.97	55163.92
572.17	56011.62
572.38	55851.14
572.58	56138.67
572.79	55960.66
572.99	56269.17
573.19	56157.43
573.40	56190.04
573.60	56381.15
573.81	56261.47
574.01	56539.01
574.21	56399.83
574.42	56275.64
574.62	56114.59
574.82	56574.48
575.03	56250.41
575.23	56788.04
575.43	56358.30
575.64	56390.16
575.84	56806.07
576.05	56343.39
576.25	56566.45
576.45	56447.59
576.66	57059.77
576.86	56604.38
577.06	56964.74
577.27	56819.83
577.47	56926.57
577.67	56773.87
577.88	56366.49
578.08	57004.06
578.28	57297.58
578.49	56940.58
578.69	57200.26
578.89	56838.75
579.10	57063.70
579.30	57713.73
579.50	57126.86
579.71	56751.59
579.91	57484.27
580.11	57159.79
580.32	57168.15
580.52	57173.72
580.72	57794.82
580.93	57081.48
581.13	57081.07
581.33	57625.99
581.54	57223.28
581.74	57252.60
581.94	57529.82
582.15	57850.20
582.35	57534.81
582.55	57765.01
582.76	57404.32
582.96	57962.10
583.16	57516.06
583.37	57755.59
583.57	57488.37
583.77	57996.02
583.97	57031.75
584.18	58265.86
584.38	58055.74
584.58	57682.60
584.79	58249.06
584.99	58188.44
585.19	57982.42
585.40	57923.93
585.60	58289.86
585.80	57702.99
586.00	58123.56
586.21	58025.67
586.41	58167.39
586.61	58475.65
586.82	58320.33
587.02	58110.79
587.22	58579.69
587.42	57965.54
587.63	58554.46
587.83	57868.39
588.03	58281.67
588.23	57926.96
588.44	58364.32
588.64	58059.67
588.84	58448.13
589.05	58672.91
589.25	58695.36
589.45	58570.43
589.65	58401.19
589.86	58711.09
590.06	58690.85
590.26	58386.03
590.46	58718.62
590.67	58095.06
590.87	58819.38
591.07	59049.49
591.27	58557.57
591.48	59008.78
591.68	58395.78
591.88	59381.02
592.08	58499.82
592.29	58997.47
592.49	58852.81
592.69	59083.08
592.89	58667.59
593.10	58808.32
593.30	58624.33
593.50	59315.81
593.70	58172.80
593.90	59029.42
594.11	58849.53
594.31	58916.13
594.51	59215.13
594.71	59207.19
594.92	59296.72
595.12	59098.56
595.32	59222.50
595.52	59460.97
595.72	58765.40
595.93	59559.35
596.13	59157.13
596.33	58982.48
596.53	59470.80
596.73	59317.12
596.94	59221.03
597.14	59596.71
597.34	59290.58
597.54	59721.80
597.74	59246.92
597.95	59432.30
598.15	59453.35
598.35	59580.24
598.55	59757.93
598.75	59284.93
598.96	59977.55
599.16	59616.70
599.36	59573.12
599.56	59463.59
599.76	59401.50
599.97	59936.75
600.17	59615.47
600.37	59780.21
600.57	59147.39
600.77	60061.03
600.97	59778.82
601.18	60342.74
601.38	59793.64
601.58	60075.69
601.78	59923.40
601.98	59661.18
602.18	60084.45
602.39	60405.58
602.59	60091.25
602.79	59938.23
602.99	59999.18
603.19	60003.52
603.39	59834.44
603.60	59906.85
603.80	59943.88
604.00	59782.01
604.20	59933.31
604.40	60153.35
604.60	60037.76
604.80	59945.27
605.01	60200.45
605.21	60009.33
605.41	60021.95
605.61	59717.13
605.81	60147.70
606.01	60514.04
606.21	59847.14
606.42	60243.95
606.62	59872.20
606.82	60394.76
607.02	60140.49
607.22	60328.33
607.42	60684.18
607.62	59984.76
607.82	60398.28
