SpectraSuite Data File
++++++++++++++++++++++++++++++++++++
Date: Tue Sep 20 12:14:05 EDT 2022
User: Laboratoire
Dark Spectrum Present: No
Reference Spectrum Present: No
Number of Sampled Component Spectra: 1
Spectrometers: FLMT00174
Integration Time (usec): 15000 (FLMT00174)
Spectra Averaged: 25 (FLMT00174)
Boxcar Smoothing: 0 (FLMT00174)
Correct for Electrical Dark: No (FLMT00174)
Strobe/Lamp Enabled: No (FLMT00174)
Correct for Detector Non-linearity: No (FLMT00174)
Correct for Stray Light: No (FLMT00174)
Number of Pixels in Processed Spectrum: 3648
>>>>>Begin Processed Spectral Data<<<<<
345.74	3170.26
345.96	3170.26
346.18	3170.26
346.39	3175.25
346.61	3213.51
346.83	3218.34
347.05	3217.69
347.27	3215.80
347.49	3225.22
347.71	3219.73
347.93	3229.07
348.15	3241.85
348.36	3231.04
348.58	3248.90
348.80	3232.92
349.02	3229.73
349.24	3238.08
349.46	3305.42
349.68	3324.84
349.90	3320.17
350.11	3319.18
350.33	3300.26
350.55	3319.27
350.77	3325.16
350.99	3310.66
351.21	3329.34
351.43	3313.94
351.65	3326.97
351.86	3324.43
352.08	3320.99
352.30	3317.87
352.52	3335.65
352.74	3307.72
352.96	3311.40
353.18	3313.94
353.39	3315.09
353.61	3323.85
353.83	3327.87
354.05	3340.32
354.27	3317.96
354.49	3342.86
354.70	3316.40
354.92	3314.27
355.14	3308.70
355.36	3315.66
355.58	3330.24
355.80	3329.42
356.02	3340.24
356.23	3334.18
356.45	3342.20
356.67	3333.93
356.89	3364.73
357.11	3301.90
357.33	3336.47
357.54	3312.63
357.76	3331.39
357.98	3313.70
358.20	3334.91
358.42	3312.30
358.63	3321.64
358.85	3331.31
359.07	3343.27
359.29	3321.56
359.51	3327.87
359.73	3308.29
359.94	3334.83
360.16	3315.01
360.38	3336.96
360.60	3312.71
360.82	3343.92
361.03	3346.22
361.25	3330.32
361.47	3346.63
361.69	3338.43
361.91	3322.30
362.12	3312.06
362.34	3315.74
362.56	3341.47
362.78	3342.94
363.00	3334.75
363.21	3337.78
363.43	3339.75
363.65	3293.79
363.87	3340.32
364.09	3336.30
364.30	3334.91
364.52	3337.12
364.74	3347.04
364.96	3331.39
365.17	3350.80
365.39	3349.99
365.61	3335.65
365.83	3341.55
366.05	3332.21
366.26	3318.61
366.48	3333.36
366.70	3342.94
366.92	3335.08
367.13	3338.27
367.35	3340.16
367.57	3322.87
367.79	3330.00
368.01	3330.90
368.22	3359.08
368.44	3337.53
368.66	3344.17
368.88	3346.38
369.09	3340.16
369.31	3340.89
369.53	3334.99
369.75	3345.48
369.96	3346.63
370.18	3328.36
370.40	3346.22
370.62	3352.85
370.83	3329.10
371.05	3359.65
371.27	3358.50
371.49	3330.57
371.70	3341.22
371.92	3328.03
372.14	3360.14
372.36	3353.84
372.57	3383.65
372.79	3353.02
373.01	3337.86
373.22	3361.62
373.44	3372.43
373.66	3340.24
373.88	3353.75
374.09	3349.17
374.31	3346.46
374.53	3340.73
374.75	3365.55
374.96	3352.52
375.18	3359.90
375.40	3353.75
375.61	3364.32
375.83	3338.52
376.05	3358.26
376.27	3374.89
376.48	3346.79
376.70	3366.70
376.92	3349.41
377.13	3348.67
377.35	3366.94
377.57	3346.79
377.79	3341.06
378.00	3357.60
378.22	3371.53
378.44	3345.48
378.65	3381.61
378.87	3371.78
379.09	3383.74
379.30	3348.76
379.52	3390.62
379.74	3354.57
379.96	3369.81
380.17	3352.93
380.39	3374.40
380.61	3389.22
380.82	3392.17
381.04	3370.55
381.26	3388.57
381.47	3382.34
381.69	3428.71
381.91	3375.30
382.12	3402.17
382.34	3390.29
382.56	3401.84
382.77	3383.57
382.99	3406.35
383.21	3404.71
383.42	3403.31
383.64	3387.26
383.86	3405.12
384.07	3389.88
384.29	3407.33
384.51	3401.92
384.72	3401.35
384.94	3409.13
385.16	3408.48
385.37	3421.01
385.59	3413.31
385.81	3416.59
386.02	3407.16
386.24	3429.94
386.46	3414.05
386.67	3421.09
386.89	3449.60
387.11	3442.47
387.32	3427.81
387.54	3424.12
387.76	3445.17
387.97	3456.89
388.19	3471.47
388.40	3438.54
388.62	3439.52
388.84	3453.53
389.05	3444.93
389.27	3461.80
389.49	3458.61
389.70	3441.73
389.92	3461.89
390.14	3458.12
390.35	3464.75
390.57	3475.24
390.78	3476.39
391.00	3453.61
391.22	3459.84
391.43	3463.36
391.65	3490.72
391.86	3492.11
392.08	3485.48
392.30	3485.89
392.51	3498.34
392.73	3516.53
392.95	3517.59
393.16	3491.30
393.38	3512.68
393.59	3512.76
393.81	3529.22
394.03	3506.94
394.24	3519.23
394.46	3537.17
394.67	3510.79
394.89	3524.64
395.11	3550.77
395.32	3546.18
395.54	3549.95
395.75	3553.31
395.97	3552.00
396.19	3538.97
396.40	3574.03
396.62	3561.66
396.83	3578.05
397.05	3583.04
397.26	3587.39
397.48	3576.00
397.70	3585.67
397.91	3581.82
398.13	3605.65
398.34	3587.47
398.56	3606.31
398.78	3621.46
398.99	3635.47
399.21	3624.17
399.42	3630.23
399.64	3610.98
399.85	3620.32
400.07	3646.53
400.29	3654.15
400.50	3632.20
400.72	3677.09
400.93	3641.62
401.15	3685.28
401.36	3669.63
401.58	3699.20
401.79	3672.75
402.01	3689.95
402.23	3684.13
402.44	3734.51
402.66	3716.00
402.87	3729.76
403.09	3718.13
403.30	3721.16
403.52	3706.09
403.73	3735.82
403.95	3732.22
404.16	3742.29
404.38	3745.24
404.60	3763.10
404.81	3754.75
405.03	3778.50
405.24	3790.79
405.46	3786.53
405.67	3786.37
405.89	3783.17
406.10	3809.30
406.32	3792.43
406.53	3818.64
406.75	3822.66
406.96	3832.49
407.18	3833.96
407.39	3837.07
407.61	3836.66
407.82	3855.26
408.04	3869.60
408.25	3877.95
408.47	3878.69
408.68	3906.13
408.90	3882.62
409.12	3906.30
409.33	3931.85
409.55	3902.45
409.76	3928.17
409.98	3925.87
410.19	3959.62
410.41	3949.96
410.62	3977.07
410.84	3962.41
411.05	3970.93
411.27	4001.65
411.48	3968.55
411.70	4006.07
411.91	3988.71
412.12	4034.17
412.34	3992.47
412.55	4030.57
412.77	4015.58
412.98	4056.29
413.20	4048.92
413.41	4066.45
413.63	4065.38
413.84	4064.73
414.06	4106.91
414.27	4110.36
414.49	4099.79
414.70	4111.91
414.92	4131.82
415.13	4126.90
415.35	4162.05
415.56	4157.21
415.78	4148.04
415.99	4163.60
416.21	4173.35
416.42	4207.10
416.63	4201.12
416.85	4217.26
417.06	4208.33
417.28	4197.93
417.49	4263.46
417.71	4261.82
417.92	4241.59
418.14	4253.14
418.35	4281.81
418.57	4298.52
418.78	4316.63
418.99	4293.77
419.21	4307.94
419.42	4328.01
419.64	4338.42
419.85	4337.68
420.07	4395.10
420.28	4379.38
420.50	4378.88
420.71	4392.57
420.92	4399.94
421.14	4449.25
421.35	4442.13
421.57	4440.49
421.78	4465.96
422.00	4460.23
422.21	4500.62
422.42	4500.70
422.64	4496.77
422.85	4523.39
423.07	4566.48
423.28	4557.39
423.50	4547.23
423.71	4587.29
423.92	4622.27
424.14	4587.70
424.35	4618.82
424.57	4645.53
424.78	4658.80
424.99	4665.76
425.21	4702.05
425.42	4706.15
425.64	4689.60
425.85	4748.42
426.06	4718.77
426.28	4738.92
426.49	4785.20
426.71	4772.18
426.92	4782.09
427.13	4824.20
427.35	4870.40
427.56	4887.27
427.78	4883.26
427.99	4882.85
428.20	4921.92
428.42	4929.71
428.63	4952.32
428.84	4918.40
429.06	4957.31
429.27	5009.50
429.49	4999.34
429.70	5066.92
429.91	5010.48
430.13	5062.41
430.34	5066.43
430.56	5092.56
430.77	5112.22
430.98	5082.89
431.20	5152.94
431.41	5201.68
431.62	5214.87
431.84	5161.05
432.05	5217.16
432.26	5224.94
432.48	5189.14
432.69	5270.16
432.91	5282.86
433.12	5334.14
433.33	5328.16
433.55	5373.13
433.76	5379.03
433.97	5361.75
434.19	5404.18
434.40	5443.01
434.61	5460.70
434.83	5460.21
435.04	5457.59
435.25	5520.67
435.47	5523.29
435.68	5493.72
435.89	5605.95
436.11	5599.31
436.32	5607.09
436.53	5611.52
436.75	5602.67
436.96	5635.27
437.17	5634.62
437.39	5683.44
437.60	5702.45
437.81	5740.37
438.03	5770.85
438.24	5758.23
438.45	5841.95
438.67	5805.75
438.88	5859.24
439.09	5940.99
439.31	5903.72
439.52	5935.67
439.73	5922.56
439.94	5875.87
440.16	5982.03
440.37	5965.73
440.58	6046.67
440.80	6058.87
441.01	6004.81
441.22	6167.99
441.44	6128.92
441.65	6117.86
441.86	6120.15
442.08	6205.35
442.29	6196.01
442.50	6276.86
442.71	6224.60
442.93	6257.86
443.14	6286.44
443.35	6323.31
443.57	6268.01
443.78	6369.43
443.99	6369.67
444.20	6344.85
444.42	6448.40
444.63	6420.30
444.84	6486.00
445.06	6527.70
445.27	6469.53
445.48	6506.81
445.69	6543.10
445.91	6575.70
446.12	6539.33
446.33	6609.04
446.54	6735.20
446.76	6617.48
446.97	6677.36
447.18	6699.72
447.39	6753.14
447.61	6787.05
447.82	6788.85
448.03	6794.26
448.25	6837.43
448.46	6913.04
448.67	6982.10
448.88	6887.89
449.10	7007.49
449.31	7018.14
449.52	6970.22
449.73	7070.41
449.95	7166.99
450.16	7076.96
450.37	7202.62
450.58	7333.53
450.79	7142.74
451.01	7221.88
451.22	7214.50
451.43	7276.19
451.64	7354.50
451.86	7353.27
452.07	7444.78
452.28	7450.76
452.49	7550.45
452.71	7462.80
452.92	7504.33
453.13	7542.91
453.34	7594.77
453.55	7690.53
453.77	7752.38
453.98	7715.44
454.19	7673.25
454.40	7779.33
454.62	7829.71
454.83	7750.09
455.04	7904.83
455.25	7810.22
455.46	8114.46
455.68	7961.11
455.89	7932.93
456.10	8043.85
456.31	8087.92
456.52	8135.19
456.74	8135.19
456.95	8294.85
457.16	8229.64
457.37	8337.53
457.58	8296.89
457.80	8284.44
458.01	8343.02
458.22	8643.00
458.43	8504.40
458.64	8561.08
458.86	8462.62
459.07	8543.55
459.28	8585.00
459.49	8727.95
459.70	8920.46
459.91	8785.79
460.13	8811.51
460.34	8905.31
460.55	8860.17
460.76	9030.40
460.97	9019.42
461.19	9041.13
461.40	9246.74
461.61	9152.13
461.82	9210.70
462.03	9302.37
462.24	9256.41
462.46	9306.71
462.67	9321.94
462.88	9419.43
463.09	9453.83
463.30	9628.07
463.51	9507.33
463.72	9705.41
463.94	9768.81
464.15	9726.79
464.36	9679.11
464.57	10002.36
464.78	9973.44
464.99	10001.21
465.20	9960.50
465.42	10173.98
465.63	10153.26
465.84	10093.45
466.05	10279.41
466.26	10367.15
466.47	10392.38
466.68	10366.57
466.90	10605.28
467.11	10551.30
467.32	10667.21
467.53	10807.38
467.74	10646.49
467.95	10776.17
468.16	10944.75
468.37	11036.50
468.59	11038.22
468.80	11248.02
469.01	11107.61
469.22	11271.61
469.43	11548.00
469.64	11391.29
469.85	11538.83
470.06	11612.47
470.28	11737.81
470.49	11592.90
470.70	11832.59
470.91	12070.97
471.12	11917.62
471.33	12223.10
471.54	12160.43
471.75	12192.79
471.96	12479.83
472.17	12409.95
472.39	12736.24
472.60	12511.29
472.81	12796.77
473.02	12749.10
473.23	13032.86
473.44	13105.69
473.65	13063.42
473.86	13194.41
474.07	13293.28
474.28	13312.86
474.49	13704.02
474.71	13630.05
474.92	13820.18
475.13	13757.60
475.34	13853.53
475.55	13956.42
475.76	14068.56
475.97	14410.57
476.18	14321.36
476.39	14542.63
476.60	14734.23
476.81	14735.38
477.02	14940.18
477.23	14907.90
477.44	14933.95
477.65	15204.69
477.87	15358.86
478.08	15468.64
478.29	15498.13
478.50	15833.91
478.71	15761.99
478.92	15916.40
479.13	16024.04
479.34	16132.67
479.55	16283.89
479.76	16268.90
479.97	16413.40
480.18	16833.07
480.39	16654.57
480.60	17043.69
480.81	17081.94
481.02	17179.43
481.23	17235.46
481.44	17539.79
481.65	17723.53
481.86	17954.95
482.07	17614.99
482.28	18413.29
482.49	18167.20
482.71	18264.03
482.92	18543.62
483.13	18735.06
483.34	18629.72
483.55	18811.00
483.76	18922.99
483.97	19162.84
484.18	19174.07
484.39	19418.27
484.60	19361.25
484.81	19778.14
485.02	19673.61
485.23	20035.69
485.44	20093.19
485.65	20366.23
485.86	20269.89
486.07	20613.30
486.28	20624.52
486.49	20870.03
486.70	20999.05
486.91	21253.82
487.12	21175.91
487.33	21153.63
487.54	21663.99
487.75	21697.49
487.96	21876.24
488.17	21829.54
488.38	22057.28
488.59	22162.95
488.80	22322.70
489.01	22418.38
489.22	22769.97
489.43	22708.70
489.64	22630.14
489.85	23192.75
490.06	22821.74
490.26	23264.02
490.47	23179.48
490.68	23610.05
490.89	23863.51
491.10	23555.08
491.31	23954.76
491.52	24256.96
491.73	24190.44
491.94	24197.73
492.15	24563.09
492.36	24589.14
492.57	24643.54
492.78	24743.48
492.99	24841.21
493.20	25169.70
493.41	25176.09
493.62	25327.80
493.83	25365.65
494.04	25577.00
494.25	25763.04
494.46	25824.15
494.67	25729.70
494.88	26036.89
495.08	26178.94
495.29	26239.80
495.50	26580.34
495.71	26452.30
495.92	26738.12
496.13	26776.37
496.34	26758.43
496.55	26902.94
496.76	27352.26
496.97	26924.32
497.18	27405.92
497.39	27326.29
497.60	27840.82
497.81	27498.73
498.02	27847.38
498.22	27597.77
498.43	28160.39
498.64	28213.31
498.85	28192.75
499.06	28359.04
499.27	28671.40
499.48	28135.73
499.69	28539.76
499.90	28707.03
500.11	28943.21
500.32	29278.83
500.52	28979.50
500.73	29472.15
500.94	29460.85
501.15	29503.69
501.36	29643.28
501.57	29485.26
501.78	29727.17
501.99	30038.54
502.20	29989.14
502.41	30031.66
502.61	30057.05
502.82	30478.77
503.03	30210.73
503.24	30752.87
503.45	30518.91
503.66	30866.74
503.87	30807.35
504.08	31082.27
504.28	30935.14
504.49	31119.21
504.70	31305.50
504.91	31501.20
505.12	31282.97
505.33	31829.45
505.54	31739.58
505.75	31842.06
505.95	32078.32
506.16	31987.47
506.37	31916.36
506.58	32470.22
506.79	32020.65
507.00	32577.04
507.21	32355.78
507.41	32488.73
507.62	32620.87
507.83	33129.25
508.04	32670.18
508.25	33224.61
508.46	33003.51
508.67	33473.89
508.87	33252.21
509.08	33675.90
509.29	33453.57
509.50	33657.14
509.71	33802.71
509.92	33912.23
510.12	33717.92
510.33	33941.81
510.54	33851.78
510.75	34099.01
510.96	34383.68
511.17	34558.74
511.37	34558.82
511.58	34856.84
511.79	34595.19
512.00	34619.85
512.21	35050.00
512.42	34976.85
512.62	35089.98
512.83	35307.64
513.04	35217.61
513.25	35624.42
513.46	34979.06
513.66	35798.66
513.87	35535.37
514.08	36025.49
514.29	35835.03
514.50	35953.40
514.71	36312.29
514.91	36077.51
515.12	36057.68
515.33	36417.96
515.54	36253.14
515.75	36756.62
515.95	36506.85
516.16	36534.29
516.37	37101.90
516.58	37127.63
516.78	36887.69
516.99	37314.07
517.20	37289.82
517.41	37327.02
517.62	37565.07
517.82	37381.66
518.03	37804.60
518.24	38157.02
518.45	37554.42
518.66	37999.49
518.86	37772.24
519.07	38248.77
519.28	37556.22
519.49	38377.30
519.69	38446.19
519.90	38631.90
520.11	38749.86
520.32	38629.61
520.52	38953.43
520.73	38566.36
520.94	39048.78
521.15	39131.93
521.36	38692.19
521.56	39538.25
521.77	38973.17
521.98	39627.29
522.19	39137.01
522.39	39504.42
522.60	39386.37
522.81	39683.24
523.02	39501.96
523.22	39889.93
523.43	40145.02
523.64	39935.72
523.84	40087.84
524.05	40492.77
524.26	40459.51
524.47	40198.92
524.67	40398.89
524.88	40632.93
525.09	40888.84
525.30	40605.81
525.50	40650.13
525.71	40836.74
525.92	40905.47
526.13	41190.14
526.33	41032.28
526.54	40893.27
526.75	41160.40
526.95	41490.78
527.16	40821.18
527.37	41481.85
527.58	41604.08
527.78	41646.10
527.99	41909.22
528.20	42193.32
528.40	41816.74
528.61	41551.89
528.82	42066.75
529.03	41877.36
529.23	41890.30
529.44	42275.07
529.65	42318.08
529.85	42476.67
530.06	42396.72
530.27	42501.25
530.47	42192.09
530.68	43006.03
530.89	42246.07
531.09	42928.95
531.30	42803.45
531.51	42463.16
531.72	43101.55
531.92	43097.13
532.13	43395.88
532.34	43182.16
532.54	43216.81
532.75	43377.70
532.96	43426.03
533.16	43653.52
533.37	43827.43
533.58	43554.56
533.78	43948.18
533.99	44077.94
534.20	43516.39
534.40	43885.02
534.61	44020.60
534.82	44108.33
535.02	44225.31
535.23	44234.32
535.44	44518.17
535.64	44357.77
535.85	44501.62
536.06	44436.50
536.26	44364.82
536.47	44461.48
536.68	44991.91
536.88	44315.26
537.09	44957.09
537.29	44535.62
537.50	45268.38
537.71	44835.36
537.91	45049.41
538.12	45335.23
538.33	44990.19
538.53	45295.83
538.74	45401.34
538.95	45478.75
539.15	45195.07
539.36	45627.76
539.56	45859.10
539.77	45466.95
539.98	45558.38
540.18	45810.19
540.39	45508.24
540.60	45840.34
540.80	45995.90
541.01	45929.88
541.21	45987.55
541.42	46180.30
541.63	45945.93
541.83	46304.08
542.04	46291.88
542.25	46224.78
542.45	46393.05
542.66	46420.73
542.86	46652.56
543.07	45544.04
543.28	46623.81
543.48	46550.66
543.69	46796.58
543.89	46510.35
544.10	47198.55
544.31	47047.66
544.51	46861.05
544.72	47076.33
544.92	46812.31
545.13	47266.79
545.33	47113.68
545.54	46800.59
545.75	47073.05
545.95	46792.89
546.16	46984.83
546.36	47602.49
546.57	46813.13
546.78	46266.07
546.98	46957.96
547.19	46250.10
547.39	47226.81
547.60	47501.08
547.80	48063.61
548.01	48056.98
548.22	47538.27
548.42	47624.20
548.63	47896.99
548.83	47725.78
549.04	47985.14
549.24	47576.61
549.45	47884.05
549.65	48286.27
549.86	47544.00
550.07	47858.00
550.27	48348.69
550.48	48366.96
550.68	48273.82
550.89	48317.89
551.09	48377.86
551.30	48210.33
551.50	48460.84
551.71	48137.01
551.91	48152.50
552.12	48343.04
552.33	48585.52
552.53	48066.65
552.74	48734.28
552.94	48790.15
553.15	48513.35
553.35	48868.38
553.56	48466.57
553.76	48967.83
553.97	48543.90
554.17	48825.38
554.38	49416.50
554.58	48764.10
554.79	49269.05
554.99	48675.14
555.20	48763.94
555.40	49233.50
555.61	48911.80
555.81	48622.14
556.02	49560.27
556.22	49363.91
556.43	49245.29
556.63	49377.35
556.84	49412.98
557.04	50098.07
557.25	49260.86
557.45	49684.05
557.66	49642.68
557.86	49323.36
558.07	49951.60
558.27	49494.16
558.48	49548.80
558.68	49566.25
558.89	49702.32
559.09	49701.58
559.30	49397.99
559.50	49625.07
559.71	49288.87
559.91	50024.01
560.12	49786.37
560.32	49788.66
560.53	49957.25
560.73	49612.21
560.94	50026.88
561.14	49584.85
561.35	50140.26
561.55	49937.18
561.76	50188.51
561.96	49602.38
562.17	50165.65
562.37	50371.92
562.57	50096.43
562.78	50010.50
562.98	50287.14
563.19	50293.85
563.39	50441.88
563.60	50363.89
563.80	49794.31
564.01	50454.00
564.21	50075.13
564.42	50005.50
564.62	50136.16
564.82	50610.80
565.03	50232.17
565.23	50399.36
565.44	50642.66
565.64	50399.86
565.85	50776.19
566.05	50545.43
566.25	50760.05
566.46	50458.84
566.66	50703.36
566.87	50588.84
567.07	50501.03
567.28	50700.50
567.48	50887.85
567.68	50252.24
567.89	51291.95
568.09	50726.96
568.30	50660.52
568.50	51008.68
568.71	50980.41
568.91	51181.69
569.11	50753.09
569.32	50877.03
569.52	50972.88
569.73	50407.47
569.93	51008.92
570.13	50803.63
570.34	50610.55
570.54	50995.16
570.75	50707.46
570.95	50749.16
571.15	50608.42
571.36	51312.43
571.56	50686.49
571.77	50670.11
571.97	50322.85
572.17	51166.70
572.38	50956.90
572.58	51259.51
572.79	51080.27
572.99	51036.86
573.19	50952.48
573.40	50647.74
573.60	50873.51
573.81	50774.72
574.01	50981.72
574.21	50820.51
574.42	50967.88
574.62	50793.07
574.82	51328.57
575.03	50999.83
575.23	51603.57
575.43	51178.58
575.64	51227.97
575.84	51701.46
576.05	51090.84
576.25	51302.85
576.45	51107.31
576.66	51609.96
576.86	51005.32
577.06	51389.76
577.27	51286.95
577.47	51376.65
577.67	51363.71
577.88	50895.30
578.08	51475.61
578.28	51675.66
578.49	51404.75
578.69	51560.56
578.89	51405.16
579.10	51484.38
579.30	52062.81
579.50	51613.40
579.71	51253.61
579.91	51799.60
580.11	51453.58
580.32	51422.94
580.52	51425.72
580.72	51982.20
580.93	51207.16
581.13	51402.13
581.33	51877.18
581.54	51427.94
581.74	51522.06
581.94	51665.09
582.15	51982.20
582.35	51588.91
582.55	51747.42
582.76	51302.27
582.96	51847.11
583.16	51415.57
583.37	51833.76
583.57	51499.53
583.77	52038.15
583.97	50949.53
584.18	51947.22
584.38	51713.42
584.58	51484.05
584.79	51891.68
584.99	51637.32
585.19	51531.89
585.40	51406.47
585.60	51716.95
585.80	51420.56
586.00	51876.28
586.21	51866.04
586.41	51762.41
586.61	51980.89
586.82	51693.68
587.02	51512.23
587.22	51766.42
587.42	51071.59
587.63	51763.07
587.83	51206.76
588.03	51647.72
588.23	51258.69
588.44	51560.81
588.64	51387.55
588.84	51502.32
589.05	51719.98
589.25	51634.04
589.45	51670.33
589.65	51620.44
589.86	51905.77
590.06	51850.15
590.26	51602.34
590.46	52002.43
590.67	51278.52
590.87	51924.12
591.07	51924.28
591.27	51418.76
591.48	51906.51
591.68	51404.18
591.88	52324.45
592.08	51531.81
592.29	51922.07
592.49	51823.03
592.69	52059.28
592.89	51623.89
593.10	51768.06
593.30	51644.04
593.50	52310.77
593.70	51183.74
593.90	52152.34
594.11	51876.28
594.31	52015.05
594.51	52188.55
594.71	52160.54
594.92	52107.86
595.12	51794.77
595.32	51888.48
595.52	52102.45
595.72	51391.89
595.93	52241.96
596.13	51998.83
596.33	51660.26
596.53	52040.20
596.73	51937.63
596.94	51730.30
597.14	52021.76
597.34	51884.22
597.54	52146.77
597.74	51719.65
597.95	52040.28
598.15	52013.74
598.35	52088.94
598.55	52145.71
598.75	51899.62
598.96	52369.02
599.16	51840.31
599.36	52001.78
599.56	51816.48
599.76	51628.06
599.97	52174.71
600.17	51962.87
600.37	52243.44
600.57	51565.64
600.77	52486.65
600.97	52102.21
601.18	52753.63
601.38	52149.23
601.58	52378.11
601.78	52029.71
601.98	51795.59
602.18	51970.57
602.39	52467.40
602.59	52135.71
602.79	51828.85
602.99	51958.20
603.19	52030.12
603.39	51966.06
603.60	51999.24
603.80	52094.34
604.00	51892.66
604.20	52076.65
604.40	52207.56
604.60	51903.47
604.80	51764.95
605.01	52047.32
605.21	51729.40
605.41	51663.86
605.61	51392.38
605.81	51795.67
606.01	52214.68
606.21	51716.70
606.42	52076.00
606.62	51735.70
606.82	52199.86
607.02	51641.58
607.22	51830.48
607.42	52097.38
607.62	51479.63
607.82	51633.63
