SpectraSuite Data File
++++++++++++++++++++++++++++++++++++
Date: Tue Sep 20 11:50:06 EDT 2022
User: Laboratoire
Dark Spectrum Present: No
Reference Spectrum Present: No
Number of Sampled Component Spectra: 1
Spectrometers: FLMT00174
Integration Time (usec): 15000 (FLMT00174)
Spectra Averaged: 25 (FLMT00174)
Boxcar Smoothing: 0 (FLMT00174)
Correct for Electrical Dark: No (FLMT00174)
Strobe/Lamp Enabled: No (FLMT00174)
Correct for Detector Non-linearity: No (FLMT00174)
Correct for Stray Light: No (FLMT00174)
Number of Pixels in Processed Spectrum: 3648
>>>>>Begin Processed Spectral Data<<<<<
345.74	3148.30
345.96	3148.30
346.18	3148.30
346.39	3165.26
346.61	3194.91
346.83	3215.31
347.05	3199.09
347.27	3201.14
347.49	3213.26
347.71	3218.34
347.93	3211.30
348.15	3213.67
348.36	3210.97
348.58	3203.84
348.80	3210.15
349.02	3229.32
349.24	3208.27
349.46	3305.75
349.68	3319.10
349.90	3341.79
350.11	3309.68
350.33	3331.06
350.55	3323.94
350.77	3341.63
350.99	3333.68
351.21	3336.80
351.43	3318.36
351.65	3352.77
351.86	3315.17
352.08	3357.69
352.30	3313.70
352.52	3333.68
352.74	3299.69
352.96	3324.34
353.18	3358.34
353.39	3347.94
353.61	3325.66
353.83	3348.18
354.05	3361.13
354.27	3345.64
354.49	3330.98
354.70	3345.23
354.92	3325.74
355.14	3333.60
355.36	3324.10
355.58	3343.60
355.80	3321.48
356.02	3345.64
356.23	3323.12
356.45	3339.58
356.67	3346.22
356.89	3346.71
357.11	3339.25
357.33	3332.95
357.54	3323.61
357.76	3329.67
357.98	3320.74
358.20	3336.96
358.42	3323.28
358.63	3338.68
358.85	3353.02
359.07	3355.88
359.29	3320.00
359.51	3341.30
359.73	3323.69
359.94	3352.28
360.16	3334.75
360.38	3335.73
360.60	3335.73
360.82	3344.33
361.03	3355.88
361.25	3328.28
361.47	3344.33
361.69	3355.06
361.91	3335.24
362.12	3359.00
362.34	3349.49
362.56	3355.31
362.78	3341.06
363.00	3355.97
363.21	3347.36
363.43	3349.58
363.65	3325.08
363.87	3325.08
364.09	3365.39
364.30	3327.95
364.52	3317.96
364.74	3361.95
364.96	3356.38
365.17	3356.78
365.39	3327.54
365.61	3336.63
365.83	3350.15
366.05	3349.90
366.26	3344.74
366.48	3353.26
366.70	3352.85
366.92	3342.53
367.13	3350.31
367.35	3346.14
367.57	3351.38
367.79	3338.27
368.01	3348.43
368.22	3377.02
368.44	3351.54
368.66	3361.45
368.88	3372.51
369.09	3354.82
369.31	3359.90
369.53	3343.92
369.75	3342.69
369.96	3376.85
370.18	3346.05
370.40	3393.81
370.62	3377.10
370.83	3336.30
371.05	3357.93
371.27	3388.65
371.49	3349.17
371.70	3358.26
371.92	3342.78
372.14	3356.87
372.36	3329.67
372.57	3386.44
372.79	3366.21
373.01	3357.77
373.22	3359.00
373.44	3366.61
373.66	3353.51
373.88	3372.27
374.09	3367.27
374.31	3357.44
374.53	3364.24
374.75	3366.94
374.96	3388.98
375.18	3370.63
375.40	3362.03
375.61	3360.72
375.83	3358.67
376.05	3370.87
376.27	3383.16
376.48	3359.82
376.70	3357.19
376.92	3382.92
377.13	3365.14
377.35	3377.76
377.57	3372.59
377.79	3390.54
378.00	3376.12
378.22	3390.37
378.44	3381.77
378.65	3400.77
378.87	3378.98
379.09	3384.72
379.30	3384.88
379.52	3380.62
379.74	3374.32
379.96	3395.70
380.17	3383.41
380.39	3410.69
380.61	3386.68
380.82	3396.68
381.04	3401.92
381.26	3410.61
381.47	3412.98
381.69	3416.59
381.91	3404.63
382.12	3432.64
382.34	3414.05
382.56	3411.42
382.77	3410.11
382.99	3401.68
383.21	3412.00
383.42	3448.53
383.64	3427.40
383.86	3415.52
384.07	3423.22
384.29	3425.84
384.51	3431.33
384.72	3415.03
384.94	3419.62
385.16	3446.98
385.37	3439.44
385.59	3423.88
385.81	3436.25
386.02	3418.14
386.24	3441.65
386.46	3435.75
386.67	3462.46
386.89	3484.33
387.11	3469.50
387.32	3454.76
387.54	3447.55
387.76	3460.33
387.97	3471.63
388.19	3473.27
388.40	3458.12
388.62	3463.77
388.84	3475.73
389.05	3479.01
389.27	3487.36
389.49	3492.69
389.70	3459.92
389.92	3497.03
390.14	3489.08
390.35	3515.46
390.57	3495.88
390.78	3503.01
391.00	3505.88
391.22	3507.43
391.43	3497.19
391.65	3532.91
391.86	3506.78
392.08	3528.57
392.30	3528.98
392.51	3521.85
392.73	3549.70
392.95	3546.75
393.16	3507.84
393.38	3546.75
393.59	3543.31
393.81	3579.77
394.03	3544.95
394.24	3574.69
394.46	3545.03
394.67	3579.69
394.89	3543.31
395.11	3581.65
395.32	3594.10
395.54	3601.15
395.75	3591.24
395.97	3581.24
396.19	3587.14
396.40	3601.48
396.62	3613.93
396.83	3606.96
397.05	3613.27
397.26	3635.23
397.48	3622.12
397.70	3619.42
397.91	3638.42
398.13	3624.25
398.34	3639.98
398.56	3656.36
398.78	3669.96
398.99	3701.33
399.21	3661.28
399.42	3699.45
399.64	3667.09
399.85	3681.84
400.07	3700.27
400.29	3710.92
400.50	3671.19
400.72	3729.51
400.93	3701.01
401.15	3717.39
401.36	3723.62
401.58	3746.80
401.79	3742.54
402.01	3725.34
402.23	3748.52
402.44	3779.16
402.66	3770.97
402.87	3763.84
403.09	3784.07
403.30	3782.76
403.52	3768.10
403.73	3792.43
403.95	3790.38
404.16	3807.75
404.38	3789.89
404.60	3807.50
404.81	3826.75
405.03	3824.70
405.24	3837.57
405.46	3847.64
405.67	3874.35
405.89	3892.12
406.10	3850.51
406.32	3853.54
406.53	3912.36
406.75	3899.25
406.96	3898.27
407.18	3909.90
407.39	3898.10
407.61	3921.86
407.82	3918.67
408.04	3933.41
408.25	3941.60
408.47	3954.71
408.68	3989.20
408.90	3943.90
409.12	4009.19
409.33	3991.98
409.55	3975.35
409.76	3986.08
409.98	4029.67
410.19	4014.10
410.41	4040.89
410.62	4036.30
410.84	4031.30
411.05	4057.76
411.27	4073.08
411.48	4063.25
411.70	4079.06
411.91	4086.60
412.12	4080.86
412.34	4098.07
412.55	4102.41
412.77	4104.05
412.98	4141.73
413.20	4115.43
413.41	4138.94
413.63	4149.02
413.84	4169.75
414.06	4174.74
414.27	4197.35
414.49	4194.73
414.70	4197.03
414.92	4206.12
415.13	4224.80
415.35	4246.59
415.56	4255.68
415.78	4242.74
415.99	4252.65
416.21	4261.25
416.42	4322.20
416.63	4314.25
416.85	4316.22
417.06	4314.33
417.28	4314.41
417.49	4364.06
417.71	4348.98
417.92	4346.20
418.14	4345.30
418.35	4374.87
418.57	4415.01
418.78	4412.72
418.99	4411.32
419.21	4455.32
419.42	4429.84
419.64	4433.69
419.85	4474.48
420.07	4499.72
420.28	4487.43
420.50	4469.24
420.71	4515.69
420.92	4523.06
421.14	4555.50
421.35	4537.32
421.57	4530.52
421.78	4559.43
422.00	4572.05
422.21	4597.94
422.42	4611.29
422.64	4610.39
422.85	4658.80
423.07	4653.15
423.28	4676.09
423.50	4673.22
423.71	4720.40
423.92	4746.37
424.14	4733.51
424.35	4763.98
424.57	4775.04
424.78	4803.63
424.99	4808.47
425.21	4826.65
425.42	4817.40
425.64	4821.49
425.85	4851.64
426.06	4838.61
426.28	4848.53
426.49	4915.29
426.71	4906.28
426.92	4897.51
427.13	4944.86
427.35	5005.24
427.56	5020.06
427.78	4999.09
427.99	5031.94
428.20	5061.76
428.42	5081.99
428.63	5099.93
428.84	5049.96
429.06	5117.79
429.27	5134.50
429.49	5142.20
429.70	5198.15
429.91	5201.68
430.13	5216.75
430.34	5226.01
430.56	5261.89
430.77	5282.86
430.98	5267.54
431.20	5303.17
431.41	5370.59
431.62	5364.86
431.84	5335.94
432.05	5395.01
432.26	5379.77
432.48	5382.06
432.69	5470.21
432.91	5452.92
433.12	5483.64
433.33	5489.87
433.55	5580.80
433.76	5562.20
433.97	5539.02
434.19	5575.06
434.40	5631.50
434.61	5635.52
434.83	5681.07
435.04	5630.28
435.25	5742.59
435.47	5720.96
435.68	5682.79
435.89	5789.36
436.11	5767.98
436.32	5791.16
436.53	5795.42
436.75	5807.22
436.96	5848.67
437.17	5827.45
437.39	5878.65
437.60	5902.98
437.81	5927.64
438.03	5941.08
438.24	5965.90
438.45	6049.13
438.67	5981.87
438.88	6049.21
439.09	6151.93
439.31	6112.29
439.52	6157.01
439.73	6142.51
439.94	6102.54
440.16	6171.35
440.37	6152.18
440.58	6260.48
440.80	6277.27
441.01	6230.00
441.22	6392.78
441.44	6341.58
441.65	6337.07
441.86	6353.37
442.08	6391.46
442.29	6387.78
442.50	6455.61
442.71	6435.05
442.93	6487.96
443.14	6476.41
443.35	6587.91
443.57	6473.96
443.78	6614.20
443.99	6599.87
444.20	6604.94
444.42	6661.39
444.63	6689.40
444.84	6748.38
445.06	6803.52
445.27	6700.30
445.48	6713.98
445.69	6791.06
445.91	6798.68
446.12	6782.63
446.33	6859.79
446.54	6954.00
446.76	6850.95
446.97	6913.21
447.18	6921.81
447.39	6988.98
447.61	7033.63
447.82	7073.03
448.03	7015.52
448.25	7105.71
448.46	7170.51
448.67	7185.59
448.88	7136.19
449.10	7247.68
449.31	7268.73
449.52	7243.34
449.73	7292.82
449.95	7405.54
450.16	7309.61
450.37	7454.61
450.58	7604.93
450.79	7402.51
451.01	7506.46
451.22	7457.56
451.43	7522.43
451.64	7642.04
451.86	7629.50
452.07	7641.30
452.28	7739.85
452.49	7843.39
452.71	7730.84
452.92	7718.22
453.13	7833.40
453.34	7837.66
453.55	7930.23
453.77	8013.62
453.98	7987.98
454.19	7952.34
454.40	8041.39
454.62	8110.94
454.83	8043.19
455.04	8187.86
455.25	8106.19
455.46	8388.32
455.68	8239.80
455.89	8276.50
456.10	8271.66
456.31	8378.08
456.52	8440.50
456.74	8402.49
456.95	8579.68
457.16	8534.87
457.37	8611.38
457.58	8620.47
457.80	8603.11
458.01	8584.59
458.22	8972.40
458.43	8754.82
458.64	8862.54
458.86	8742.53
459.07	8871.88
459.28	8885.32
459.49	9007.87
459.70	9205.05
459.91	9137.05
460.13	9111.90
460.34	9201.77
460.55	9147.95
460.76	9350.86
460.97	9322.03
461.19	9312.52
461.40	9554.10
461.61	9461.21
461.82	9501.26
462.03	9596.13
462.24	9608.09
462.46	9643.56
462.67	9635.69
462.88	9759.96
463.09	9742.11
463.30	9921.75
463.51	9825.33
463.72	10047.58
463.94	10106.64
464.15	10098.21
464.36	9976.64
464.57	10347.08
464.78	10283.59
464.99	10329.14
465.20	10315.13
465.42	10485.85
465.63	10469.87
465.84	10481.26
466.05	10632.15
466.26	10708.66
466.47	10803.12
466.68	10718.00
466.90	10958.03
467.11	10900.68
467.32	11017.01
467.53	11198.13
467.74	10969.66
467.95	11109.49
468.16	11333.62
468.37	11399.90
468.59	11410.38
468.80	11589.62
469.01	11406.86
469.22	11630.74
469.43	11919.42
469.64	11768.37
469.85	11926.88
470.06	11969.72
470.28	12126.10
470.49	11936.87
470.70	12117.75
470.91	12424.86
471.12	12294.28
471.33	12557.98
471.54	12475.73
471.75	12556.26
471.96	12857.64
472.17	12811.52
472.39	13149.60
472.60	12861.00
472.81	13181.87
473.02	13167.46
473.23	13417.39
473.44	13447.04
473.65	13433.94
473.86	13564.76
474.07	13675.68
474.28	13764.07
474.49	14084.21
474.71	13995.65
474.92	14206.27
475.13	14107.56
475.34	14249.68
475.55	14330.78
475.76	14415.82
475.97	14803.86
476.18	14757.74
476.39	14989.49
476.60	15089.43
476.81	15141.94
477.02	15354.11
477.23	15396.55
477.44	15366.40
477.65	15636.98
477.87	15822.61
478.08	15881.18
478.29	15939.83
478.50	16358.11
478.71	16214.75
478.92	16425.69
479.13	16503.11
479.34	16621.15
479.55	16801.70
479.76	16762.46
479.97	16841.92
480.18	17396.10
480.39	17082.27
480.60	17532.01
480.81	17589.27
481.02	17687.98
481.23	17771.78
481.44	18051.12
481.65	18182.77
481.86	18496.84
482.07	18144.84
482.28	18847.13
482.49	18644.30
482.71	18742.68
482.92	18954.61
483.13	19234.60
483.34	19100.18
483.55	19338.48
483.76	19377.06
483.97	19657.63
484.18	19686.88
484.39	19916.74
484.60	19830.81
484.81	20264.57
485.02	20216.40
485.23	20530.15
485.44	20658.93
485.65	20887.81
485.86	20740.11
486.07	21153.39
486.28	21111.94
486.49	21369.41
486.70	21537.75
486.91	21732.55
487.12	21681.11
487.33	21617.05
487.54	22135.76
487.75	22262.89
487.96	22330.56
488.17	22360.87
488.38	22641.44
488.59	22686.50
488.80	22866.72
489.01	22881.87
489.22	23277.38
489.43	23306.87
489.64	23191.03
489.85	23784.21
490.06	23408.28
490.26	23828.03
490.47	23704.58
490.68	24107.71
490.89	24391.64
491.10	24161.77
491.31	24499.93
491.52	24795.49
491.73	24659.26
491.94	24782.06
492.15	24988.00
492.36	25127.10
492.57	25265.38
492.78	25210.82
492.99	25414.72
493.20	25651.46
493.41	25716.51
493.62	25857.90
493.83	25880.67
494.04	26039.59
494.25	26328.52
494.46	26376.44
494.67	26304.44
494.88	26609.01
495.08	26724.19
495.29	26851.98
495.50	27178.68
495.71	27002.96
495.92	27360.04
496.13	27412.80
496.34	27288.69
496.55	27524.21
496.76	27927.41
496.97	27562.30
497.18	27919.06
497.39	27850.90
497.60	28373.95
497.81	28001.71
498.02	28367.40
498.22	28088.46
498.43	28656.00
498.64	28705.48
498.85	28763.23
499.06	28874.56
499.27	29256.22
499.48	28599.47
499.69	29131.54
499.90	29353.95
500.11	29547.44
500.32	29883.39
500.52	29474.04
500.73	30151.83
500.94	30123.98
501.15	30171.33
501.36	30285.03
501.57	30039.11
501.78	30332.71
501.99	30706.26
502.20	30681.03
502.41	30697.82
502.61	30671.61
502.82	31082.02
503.03	30805.46
503.24	31277.81
503.45	31115.44
503.66	31482.69
503.87	31399.87
504.08	31776.20
504.28	31601.71
504.49	31796.52
504.70	31800.53
504.91	32052.35
505.12	31816.10
505.33	32379.53
505.54	32357.99
505.75	32461.62
505.95	32717.37
506.16	32665.76
506.37	32591.37
506.58	33118.28
506.79	32684.76
507.00	33198.47
507.21	32940.92
507.41	33052.00
507.62	33213.63
507.83	33646.98
508.04	33235.42
508.25	33777.31
508.46	33496.41
508.67	34012.99
508.87	33726.85
509.08	34212.22
509.29	34011.27
509.50	34256.70
509.71	34460.68
509.92	34578.72
510.12	34462.81
510.33	34757.47
510.54	34610.34
510.75	34944.98
510.96	35057.29
511.17	35325.17
511.37	35230.47
511.58	35483.02
511.79	35352.94
512.00	35278.56
512.21	35785.14
512.42	35760.73
512.62	35961.92
512.83	36237.00
513.04	36068.66
513.25	36485.14
513.46	35762.45
513.66	36791.19
513.87	36442.29
514.08	36895.39
514.29	36622.35
514.50	36598.43
514.71	36976.65
514.91	36790.61
515.12	36841.48
515.33	37219.13
515.54	37103.95
515.75	37638.39
515.95	37313.09
516.16	37453.50
516.37	37958.28
516.58	37938.46
516.78	37758.65
516.99	38059.12
517.20	38123.68
517.41	38130.88
517.62	38334.12
517.82	38240.41
518.03	38886.42
518.24	39243.18
518.45	38651.31
518.66	39089.66
518.86	38765.18
519.07	39363.60
519.28	38702.68
519.49	39428.97
519.69	39455.43
519.90	39595.26
520.11	39706.92
520.32	39584.78
520.52	40072.11
520.73	39700.04
520.94	40293.95
521.15	40301.73
521.36	39973.65
521.56	40767.11
521.77	40143.55
521.98	40773.75
522.19	40363.42
522.39	40788.57
522.60	40664.06
522.81	40924.07
523.02	40737.54
523.22	41124.44
523.43	41402.64
523.64	41166.88
523.84	41354.55
524.05	41765.54
524.26	41754.72
524.47	41546.90
524.67	41784.05
524.88	42018.01
525.09	42396.64
525.30	41996.96
525.50	42066.18
525.71	42206.10
525.92	42315.62
526.13	42579.89
526.33	42428.75
526.54	42327.34
526.75	42703.26
526.95	43188.71
527.16	42563.92
527.37	43201.00
527.58	43387.53
527.78	43278.82
527.99	43611.25
528.20	43786.15
528.40	43505.98
528.61	43416.45
528.82	43991.02
529.03	43972.18
529.23	43920.57
529.44	44213.68
529.65	44279.30
529.85	44380.38
530.06	44248.25
530.27	44396.85
530.47	44036.57
530.68	44994.28
530.89	44312.80
531.09	44958.07
531.30	44882.96
531.51	44461.65
531.72	45116.42
531.92	45077.76
532.13	45385.53
532.34	45203.18
532.54	45236.19
532.75	45392.00
532.96	45479.41
533.16	45773.90
533.37	45933.73
533.58	45628.99
533.78	46109.93
533.99	46203.98
534.20	45771.69
534.40	46202.26
534.61	46428.43
534.82	46505.52
535.02	46523.38
535.23	46539.76
535.44	46887.18
535.64	46847.94
535.85	46881.20
536.06	46941.00
536.26	46900.70
536.47	47002.36
536.68	47765.84
536.88	47133.02
537.09	47820.40
537.29	47187.25
537.50	48197.72
537.71	47633.13
537.91	47809.18
538.12	48037.32
538.33	47692.77
538.53	47973.83
538.74	48121.37
538.95	48211.40
539.15	48088.60
539.36	48441.83
539.56	48798.02
539.77	48240.56
539.98	48485.00
540.18	48794.08
540.39	48537.51
540.60	48913.93
540.80	49167.80
541.01	49068.27
541.21	49098.90
541.42	49253.48
541.63	49272.00
541.83	49473.11
542.04	49543.72
542.25	49422.56
542.45	49695.52
542.66	49696.17
542.86	50002.71
543.07	48969.23
543.28	50054.32
543.48	49803.24
543.69	50148.77
543.89	49892.29
544.10	50505.94
544.31	50271.82
544.51	50164.83
544.72	50460.15
544.92	50325.56
545.13	50747.19
545.33	50717.04
545.54	50497.91
545.75	50892.51
545.95	50765.21
546.16	50729.09
546.36	51318.82
546.57	50436.96
546.78	49748.11
546.98	50412.88
547.19	49659.56
547.39	50762.59
547.60	51200.86
547.80	51758.23
548.01	51892.17
548.22	51463.41
548.42	51643.05
548.63	51934.36
548.83	51677.79
549.04	52162.99
549.24	51801.57
549.45	52190.60
549.65	52496.89
549.86	51742.83
550.07	52021.19
550.27	52513.03
550.48	52477.81
550.68	52236.64
550.89	52339.53
551.09	52505.74
551.30	52403.51
551.50	52724.30
551.71	52486.65
551.91	52543.01
552.12	52919.92
552.33	53215.48
552.53	52728.89
552.74	53445.19
552.94	53402.67
553.15	53125.37
553.35	53470.09
553.56	53062.62
553.76	53567.90
553.97	53133.81
554.17	53400.54
554.38	54216.53
554.58	53375.31
554.79	54151.00
554.99	53597.96
555.20	53700.03
555.40	54229.72
555.61	53867.07
555.81	53587.72
556.02	54518.48
556.22	54277.97
556.43	54048.93
556.63	54108.32
556.84	54125.27
557.04	54680.03
557.25	54083.41
557.45	54631.37
557.66	54641.94
557.86	54438.78
558.07	55055.71
558.27	54660.45
558.48	54829.45
558.68	54906.94
558.89	55111.00
559.09	55155.24
559.30	54899.41
559.50	55191.53
559.71	54697.31
559.91	55535.42
560.12	55201.03
560.32	55296.55
560.53	55531.33
560.73	55190.14
560.94	55779.95
561.14	55241.17
561.35	55929.04
561.55	55644.62
561.76	55784.38
561.96	55184.24
562.17	55827.05
562.37	56079.61
562.57	55738.99
562.78	55661.99
562.98	56081.49
563.19	56073.71
563.39	56314.88
563.60	56435.06
563.80	55942.31
564.01	56596.27
564.21	56219.20
564.42	56258.03
564.62	56479.70
564.82	56755.52
565.03	56303.90
565.23	56325.94
565.44	56645.75
565.64	56369.27
565.85	56879.14
566.05	56600.94
566.25	56903.79
566.46	56535.24
566.66	56872.50
566.87	56864.88
567.07	56916.00
567.28	57020.94
567.48	57418.24
567.68	56570.30
567.89	57646.39
568.09	57089.34
568.30	57177.16
568.50	57653.84
568.71	57477.88
568.91	57868.55
569.11	57362.38
569.32	57457.07
569.52	57671.95
569.73	57063.86
569.93	57840.37
570.13	57643.77
570.34	57536.04
570.54	58023.13
570.75	57856.67
570.95	57781.39
571.15	57699.39
571.36	58409.30
571.56	57753.37
571.77	57710.61
571.97	57218.36
572.17	58145.60
572.38	57989.87
572.58	58303.95
572.79	58096.29
572.99	58183.04
573.19	58261.84
573.40	58137.57
573.60	58294.53
573.81	58137.41
574.01	58407.74
574.21	58343.68
574.42	58417.65
574.62	58207.37
574.82	58633.51
575.03	58283.14
575.23	58870.50
575.43	58528.08
575.64	58482.45
575.84	58915.96
576.05	58415.61
576.25	58719.77
576.45	58578.79
576.66	59193.83
576.86	58699.62
577.06	59101.10
577.27	59043.92
577.47	59055.72
577.67	59012.14
577.88	58528.33
578.08	59339.24
578.28	59360.54
578.49	59213.00
578.69	59283.94
578.89	58989.61
579.10	59255.60
579.30	59831.49
579.50	59282.47
579.71	58844.12
579.91	59507.66
580.11	59185.23
580.32	59243.07
580.52	59227.17
580.72	59911.36
580.93	59365.70
581.13	59436.80
581.33	59938.64
581.54	59453.52
581.74	59539.86
581.94	59660.69
582.15	60083.47
582.35	59630.62
582.55	59828.62
582.76	59490.63
582.96	60055.29
583.16	59771.77
583.37	59927.01
583.57	59705.50
583.77	60214.70
583.97	59204.56
584.18	60478.89
584.38	60255.75
584.58	59846.48
584.79	60332.18
584.99	60236.50
585.19	60168.83
585.40	60063.07
585.60	60357.33
585.80	59914.14
586.00	60372.64
586.21	60346.76
586.41	60310.14
586.61	60609.88
586.82	60466.85
587.02	60352.16
587.22	60736.77
587.42	60009.74
587.63	60811.07
587.83	60106.33
588.03	60584.32
588.23	60259.51
588.44	60588.17
588.64	60293.92
588.84	60587.84
589.05	60873.99
589.25	60904.38
589.45	60848.35
589.65	60613.73
589.86	60953.86
590.06	60926.99
590.26	60743.98
590.46	61038.73
590.67	60397.47
590.87	61078.78
591.07	61327.82
591.27	60653.95
591.48	61172.25
591.68	60584.73
591.88	61682.36
592.08	60836.96
592.29	61235.58
592.49	61113.35
592.69	61369.68
592.89	60981.79
593.10	61094.10
593.30	60882.51
593.50	61619.37
593.70	60556.80
593.90	61496.41
594.11	61288.74
594.31	61293.41
594.51	61593.07
594.71	61652.05
594.92	61617.32
595.12	61436.77
595.32	61459.62
595.52	61766.49
595.72	60902.74
595.93	61720.78
596.13	61473.22
596.33	61121.05
596.53	61748.47
596.73	61504.68
596.94	61473.63
597.14	61868.73
597.34	61553.91
597.54	61871.84
597.74	61570.05
597.95	61676.38
598.15	61698.01
598.35	61842.10
598.55	62020.19
598.75	61668.60
598.96	62291.84
599.16	61774.36
599.36	61945.98
599.56	61872.74
599.76	61803.68
599.97	62273.08
600.17	62033.22
600.37	62289.05
600.57	61438.73
600.77	62552.58
600.97	62116.86
601.18	62687.01
601.38	62048.54
601.58	62490.08
601.78	62240.31
601.98	61985.87
602.18	62370.81
602.39	62814.89
602.59	62486.97
602.79	62426.59
602.99	62454.28
603.19	62394.81
603.39	62204.18
603.60	62242.77
603.80	62360.81
604.00	62281.19
604.20	62400.79
604.40	62621.40
604.60	62370.40
604.80	62407.10
605.01	62599.28
605.21	62429.30
605.41	62379.49
605.61	62023.31
605.81	62417.42
606.01	62809.24
606.21	62159.21
606.42	62573.23
606.62	62337.22
606.82	62802.85
607.02	62538.99
607.22	62703.48
607.42	62989.29
607.62	62344.84
