SpectraSuite Data File
++++++++++++++++++++++++++++++++++++
Date: Tue Sep 20 12:09:15 EDT 2022
User: Laboratoire
Dark Spectrum Present: No
Reference Spectrum Present: No
Number of Sampled Component Spectra: 1
Spectrometers: FLMT00174
Integration Time (usec): 15000 (FLMT00174)
Spectra Averaged: 25 (FLMT00174)
Boxcar Smoothing: 0 (FLMT00174)
Correct for Electrical Dark: No (FLMT00174)
Strobe/Lamp Enabled: No (FLMT00174)
Correct for Detector Non-linearity: No (FLMT00174)
Correct for Stray Light: No (FLMT00174)
Number of Pixels in Processed Spectrum: 3648
>>>>>Begin Processed Spectral Data<<<<<
345.74	3161.41
345.96	3161.41
346.18	3161.41
346.39	3159.85
346.61	3192.46
346.83	3216.29
347.05	3215.15
347.27	3209.33
347.49	3211.62
347.71	3217.52
347.93	3218.18
348.15	3217.85
348.36	3206.71
348.58	3235.54
348.80	3216.29
349.02	3220.96
349.24	3219.41
349.46	3305.99
349.68	3335.40
349.90	3336.96
350.11	3311.16
350.33	3318.94
350.55	3314.27
350.77	3327.38
350.99	3322.54
351.21	3329.92
351.43	3318.12
351.65	3333.77
351.86	3331.06
352.08	3337.86
352.30	3305.83
352.52	3349.41
352.74	3320.17
352.96	3349.33
353.18	3321.48
353.39	3356.54
353.61	3335.81
353.83	3340.97
354.05	3359.08
354.27	3335.16
354.49	3313.20
354.70	3340.56
354.92	3330.73
355.14	3337.29
355.36	3336.80
355.58	3325.74
355.80	3328.03
356.02	3342.04
356.23	3312.38
356.45	3334.67
356.67	3349.17
356.89	3368.91
357.11	3352.52
357.33	3344.25
357.54	3329.83
357.76	3322.87
357.98	3325.00
358.20	3361.13
358.42	3332.21
358.63	3344.41
358.85	3349.90
359.07	3363.26
359.29	3318.77
359.51	3334.75
359.73	3325.41
359.94	3335.90
360.16	3301.82
360.38	3330.24
360.60	3325.82
360.82	3346.05
361.03	3339.75
361.25	3355.31
361.47	3350.07
361.69	3359.65
361.91	3339.17
362.12	3335.57
362.34	3337.29
362.56	3348.02
362.78	3346.14
363.00	3333.60
363.21	3337.37
363.43	3344.33
363.65	3331.39
363.87	3341.06
364.09	3353.02
364.30	3351.38
364.52	3344.58
364.74	3333.52
364.96	3363.58
365.17	3351.05
365.39	3333.85
365.61	3334.26
365.83	3348.67
366.05	3351.62
366.26	3340.07
366.48	3348.92
366.70	3347.77
366.92	3357.11
367.13	3347.61
367.35	3325.74
367.57	3354.16
367.79	3347.28
368.01	3346.38
368.22	3353.92
368.44	3352.52
368.66	3340.89
368.88	3359.49
369.09	3349.66
369.31	3367.11
369.53	3352.61
369.75	3350.39
369.96	3371.69
370.18	3351.13
370.40	3368.01
370.62	3353.51
370.83	3340.73
371.05	3367.43
371.27	3364.98
371.49	3363.50
371.70	3373.74
371.92	3348.67
372.14	3374.64
372.36	3361.45
372.57	3376.36
372.79	3374.89
373.01	3364.16
373.22	3345.56
373.44	3360.39
373.66	3361.95
373.88	3371.69
374.09	3346.38
374.31	3368.99
374.53	3343.51
374.75	3379.48
374.96	3354.57
375.18	3380.38
375.40	3365.71
375.61	3366.61
375.83	3358.26
376.05	3364.57
376.27	3379.64
376.48	3381.20
376.70	3377.76
376.92	3368.01
377.13	3367.68
377.35	3371.78
377.57	3397.74
377.79	3368.58
378.00	3370.14
378.22	3384.64
378.44	3373.50
378.65	3381.03
378.87	3379.89
379.09	3406.67
379.30	3388.16
379.52	3388.49
379.74	3385.21
379.96	3401.27
380.17	3368.50
380.39	3386.77
380.61	3388.16
380.82	3388.32
381.04	3383.00
381.26	3404.22
381.47	3402.00
381.69	3426.66
381.91	3399.71
382.12	3407.57
382.34	3410.20
382.56	3391.85
382.77	3398.15
382.99	3412.41
383.21	3399.14
383.42	3424.94
383.64	3402.25
383.86	3409.54
384.07	3412.33
384.29	3415.44
384.51	3419.94
384.72	3437.15
384.94	3430.76
385.16	3429.04
385.37	3417.81
385.59	3418.31
385.81	3433.21
386.02	3424.53
386.24	3453.28
386.46	3431.66
386.67	3444.93
386.89	3455.50
387.11	3451.32
387.32	3460.08
387.54	3461.80
387.76	3462.46
387.97	3485.07
388.19	3455.74
388.40	3472.37
388.62	3470.49
388.84	3473.68
389.05	3480.97
389.27	3461.97
389.49	3493.59
389.70	3469.18
389.92	3493.92
390.14	3480.56
390.35	3500.88
390.57	3492.44
390.78	3495.96
391.00	3491.79
391.22	3483.59
391.43	3484.58
391.65	3503.75
391.86	3525.13
392.08	3524.39
392.30	3520.13
392.51	3515.63
392.73	3543.40
392.95	3521.69
393.16	3530.78
393.38	3543.31
393.59	3539.14
393.81	3581.08
394.03	3526.60
394.24	3547.00
394.46	3542.82
394.67	3563.47
394.89	3561.75
395.11	3572.39
395.32	3592.14
395.54	3574.28
395.75	3592.87
395.97	3573.46
396.19	3568.13
396.40	3606.23
396.62	3594.19
396.83	3605.57
397.05	3612.29
397.26	3619.83
397.48	3621.30
397.70	3620.24
397.91	3636.13
398.13	3629.41
398.34	3634.65
398.56	3665.54
398.78	3643.25
398.99	3687.98
399.21	3665.62
399.42	3671.43
399.64	3656.36
399.85	3675.45
400.07	3675.04
400.29	3712.64
400.50	3692.73
400.72	3706.33
400.93	3708.71
401.15	3688.06
401.36	3718.05
401.58	3737.87
401.79	3716.16
402.01	3761.14
402.23	3739.10
402.44	3780.96
402.66	3766.05
402.87	3788.50
403.09	3764.49
403.30	3777.19
403.52	3778.34
403.73	3768.67
403.95	3804.55
404.16	3805.78
404.38	3812.33
404.60	3811.68
404.81	3808.57
405.03	3842.40
405.24	3842.24
405.46	3845.27
405.67	3857.55
405.89	3870.42
406.10	3861.57
406.32	3863.78
406.53	3883.52
406.75	3914.08
406.96	3908.59
407.18	3907.28
407.39	3883.93
407.61	3907.11
407.82	3928.25
408.04	3957.00
408.25	3920.14
408.47	3945.45
408.68	3971.42
408.90	3949.06
409.12	3992.80
409.33	3989.85
409.55	3982.73
409.76	3987.72
409.98	3991.33
410.19	4030.73
410.41	4051.95
410.62	4046.95
410.84	4030.65
411.05	4043.67
411.27	4081.03
411.48	4080.95
411.70	4073.57
411.91	4121.00
412.12	4114.61
412.34	4102.16
412.55	4122.48
412.77	4132.31
412.98	4147.46
413.20	4128.21
413.41	4161.96
413.63	4177.77
413.84	4187.69
414.06	4179.25
414.27	4207.59
414.49	4217.01
414.70	4212.26
414.92	4250.93
415.13	4216.69
415.35	4274.93
415.56	4278.86
415.78	4258.87
415.99	4288.45
416.21	4318.76
416.42	4322.12
416.63	4366.60
416.85	4347.51
417.06	4330.63
417.28	4316.63
417.49	4372.82
417.71	4377.00
417.92	4384.13
418.14	4405.92
418.35	4420.50
418.57	4427.22
418.78	4431.72
418.99	4423.28
419.21	4475.39
419.42	4482.51
419.64	4477.92
419.85	4498.16
420.07	4548.37
420.28	4495.29
420.50	4531.50
420.71	4555.58
420.92	4565.74
421.14	4582.86
421.35	4583.85
421.57	4599.33
421.78	4609.57
422.00	4644.63
422.21	4671.25
422.42	4666.91
422.64	4636.27
422.85	4695.42
423.07	4734.99
423.28	4707.22
423.50	4726.96
423.71	4766.36
423.92	4797.00
424.14	4768.82
424.35	4812.32
424.57	4838.45
424.78	4849.26
424.99	4869.09
425.21	4900.79
425.42	4871.22
425.64	4885.96
425.85	4932.08
426.06	4922.25
426.28	4931.18
426.49	4984.26
426.71	4977.55
426.92	4981.97
427.13	5037.68
427.35	5071.26
427.56	5097.56
427.78	5063.64
427.99	5090.43
428.20	5142.94
428.42	5164.24
428.63	5174.15
428.84	5121.97
429.06	5188.98
429.27	5215.11
429.49	5235.26
429.70	5281.88
429.91	5249.60
430.13	5282.28
430.34	5327.83
430.56	5319.31
430.77	5376.74
430.98	5332.42
431.20	5391.81
431.41	5452.59
431.62	5470.70
431.84	5426.79
432.05	5489.54
432.26	5487.33
432.48	5462.42
432.69	5580.63
432.91	5538.36
433.12	5580.80
433.33	5586.37
433.55	5725.79
433.76	5681.07
433.97	5656.00
434.19	5655.42
434.40	5743.65
434.61	5755.20
434.83	5770.03
435.04	5747.50
435.25	5830.40
435.47	5813.69
435.68	5805.75
435.89	5918.38
436.11	5906.01
436.32	5942.71
436.53	5934.60
436.75	5947.87
436.96	5979.66
437.17	5946.73
437.39	6000.38
437.60	6038.64
437.81	6063.87
438.03	6104.91
438.24	6109.17
438.45	6186.67
438.67	6118.51
438.88	6244.26
439.09	6285.95
439.31	6270.63
439.52	6315.03
439.73	6264.57
439.94	6253.84
440.16	6352.72
440.37	6327.32
440.58	6416.37
440.80	6418.58
441.01	6405.88
441.22	6554.16
441.44	6519.67
441.65	6497.71
441.86	6500.74
442.08	6589.46
442.29	6584.14
442.50	6632.63
442.71	6615.10
442.93	6677.44
443.14	6661.22
443.35	6753.22
443.57	6656.47
443.78	6815.64
443.99	6807.04
444.20	6781.73
444.42	6867.99
444.63	6863.73
444.84	6942.12
445.06	6985.05
445.27	6910.83
445.48	6927.38
445.69	6971.86
445.91	7051.57
446.12	6997.34
446.33	7044.93
446.54	7171.17
446.76	7100.23
446.97	7149.46
447.18	7141.02
447.39	7209.42
447.61	7268.24
447.82	7285.12
448.03	7249.65
448.25	7313.05
448.46	7403.73
448.67	7439.62
448.88	7368.67
449.10	7495.81
449.31	7538.49
449.52	7490.98
449.73	7516.62
449.95	7667.51
450.16	7572.90
450.37	7751.89
450.58	7908.11
450.79	7673.17
451.01	7765.24
451.22	7704.46
451.43	7771.14
451.64	7892.38
451.86	7883.21
452.07	7911.79
452.28	7995.76
452.49	8104.14
452.71	8000.27
452.92	8018.62
453.13	8085.22
453.34	8145.59
453.55	8256.51
453.77	8310.98
453.98	8311.39
454.19	8231.93
454.40	8364.07
454.62	8444.27
454.83	8294.60
455.04	8523.81
455.25	8403.96
455.46	8714.03
455.68	8548.47
455.89	8563.29
456.10	8631.61
456.31	8673.23
456.52	8720.25
456.74	8752.12
456.95	8938.81
457.16	8878.60
457.37	8984.85
457.58	8941.51
457.80	8957.41
458.01	8949.13
458.22	9329.07
458.43	9145.41
458.64	9237.32
458.86	9094.95
459.07	9247.48
459.28	9233.06
459.49	9391.74
459.70	9584.00
459.91	9498.15
460.13	9503.56
460.34	9578.35
460.55	9525.27
460.76	9749.31
460.97	9730.39
461.19	9746.04
461.40	10009.08
461.61	9888.74
461.82	9930.27
462.03	10053.31
462.24	9994.17
462.46	10027.35
462.67	10069.62
462.88	10238.45
463.09	10192.41
463.30	10401.88
463.51	10243.28
463.72	10525.74
463.94	10569.32
464.15	10534.51
464.36	10492.65
464.57	10817.70
464.78	10776.00
464.99	10827.28
465.20	10750.93
465.42	10940.90
465.63	11012.50
465.84	10973.59
466.05	11130.87
466.26	11227.21
466.47	11303.56
466.68	11282.01
466.90	11443.64
467.11	11396.62
467.32	11592.08
467.53	11737.48
467.74	11527.03
467.95	11676.21
468.16	11872.73
468.37	11946.46
468.59	11996.67
468.80	12180.25
469.01	12058.44
469.22	12267.33
469.43	12538.65
469.64	12407.50
469.85	12553.80
470.06	12621.96
470.28	12786.45
470.49	12553.88
470.70	12849.69
470.91	13107.90
471.12	12947.42
471.33	13289.11
471.54	13142.55
471.75	13251.67
471.96	13588.93
472.17	13534.53
472.39	13882.77
472.60	13613.50
472.81	13910.54
473.02	13872.45
473.23	14134.26
473.44	14212.90
473.65	14156.46
473.86	14293.18
474.07	14410.08
474.28	14513.95
474.49	14890.78
474.71	14840.15
474.92	15056.83
475.13	14964.84
475.34	15074.03
475.55	15224.93
475.76	15315.86
475.97	15674.66
476.18	15611.83
476.39	15879.95
476.60	16061.15
476.81	16061.07
477.02	16262.18
477.23	16281.02
477.44	16319.20
477.65	16624.10
477.87	16780.48
478.08	16884.85
478.29	16943.50
478.50	17348.26
478.71	17250.86
478.92	17427.23
479.13	17483.35
479.34	17598.93
479.55	17819.38
479.76	17765.06
479.97	17906.37
480.18	18410.42
480.39	18137.22
480.60	18542.80
480.81	18647.08
481.02	18761.85
481.23	18854.91
481.44	19162.27
481.65	19358.22
481.86	19589.89
482.07	19246.56
482.28	20119.41
482.49	19857.19
482.71	19952.21
482.92	20244.01
483.13	20542.52
483.34	20375.98
483.55	20584.13
483.76	20635.25
483.97	20973.08
484.18	21046.81
484.39	21229.00
484.60	21198.69
484.81	21665.30
485.02	21581.90
485.23	21913.35
485.44	22048.02
485.65	22224.64
485.86	22082.35
486.07	22503.65
486.28	22496.20
486.49	22845.17
486.70	22959.45
486.91	23272.13
487.12	23126.07
487.33	23229.70
487.54	23732.44
487.75	23723.01
487.96	23849.25
488.17	23840.65
488.38	24164.88
488.59	24234.92
488.80	24363.46
489.01	24512.22
489.22	24808.77
489.43	24854.64
489.64	24741.92
489.85	25369.58
490.06	24977.03
490.26	25426.27
490.47	25378.84
490.68	25795.40
490.89	26094.97
491.10	25812.93
491.31	26211.54
491.52	26499.40
491.73	26347.45
491.94	26367.93
492.15	26685.93
492.36	26895.81
492.57	26931.36
492.78	27056.21
492.99	27226.19
493.20	27477.51
493.41	27541.41
493.62	27690.18
493.83	27697.79
494.04	27877.11
494.25	28177.26
494.46	28294.57
494.67	28145.64
494.88	28407.95
495.08	28533.86
495.29	28682.54
495.50	28929.03
495.71	28875.62
495.92	29240.41
496.13	29271.45
496.34	29196.42
496.55	29409.57
496.76	29889.28
496.97	29469.78
497.18	29955.39
497.39	29883.14
497.60	30479.76
497.81	30010.36
498.02	30397.02
498.22	30071.39
498.43	30707.49
498.64	30811.61
498.85	30767.70
499.06	30906.55
499.27	31335.56
499.48	30670.05
499.69	31140.02
499.90	31290.01
500.11	31572.06
500.32	32035.64
500.52	31657.99
500.73	32239.29
500.94	32239.94
501.15	32320.96
501.36	32355.94
501.57	32125.18
501.78	32447.28
501.99	32782.16
502.20	32743.99
502.41	32824.43
502.61	32861.62
502.82	33201.92
503.03	33054.05
503.24	33550.07
503.45	33222.80
503.66	33796.56
503.87	33579.48
504.08	34050.68
504.28	33836.38
504.49	34052.64
504.70	34222.46
504.91	34420.70
505.12	34091.96
505.33	34757.06
505.54	34666.70
505.75	34714.46
505.95	35028.29
506.16	34892.39
506.37	34794.99
506.58	35413.72
506.79	34951.78
507.00	35515.38
507.21	35265.20
507.41	35330.90
507.62	35551.34
507.83	36143.70
508.04	35726.16
508.25	36221.69
508.46	35958.64
508.67	36573.94
508.87	36300.82
509.08	36753.17
509.29	36603.67
509.50	36743.10
509.71	36895.88
509.92	37059.88
510.12	36814.86
510.33	37119.11
510.54	36974.60
510.75	37287.69
510.96	37487.08
511.17	37775.28
511.37	37660.43
511.58	37895.29
511.79	37702.04
512.00	37698.68
512.21	38221.24
512.42	38164.31
512.62	38382.62
512.83	38635.26
513.04	38479.61
513.25	38954.91
513.46	38092.87
513.66	39296.34
513.87	38879.70
514.08	39321.41
514.29	39081.80
514.50	39107.44
514.71	39545.13
514.91	39277.50
515.12	39353.19
515.33	39741.08
515.54	39638.84
515.75	40145.27
515.95	39935.88
516.16	40005.76
516.37	40469.17
516.58	40461.72
516.78	40240.21
516.99	40672.25
517.20	40584.11
517.41	40639.07
517.62	40823.47
517.82	40811.27
518.03	41345.46
518.24	41815.26
518.45	41082.42
518.66	41654.29
518.86	41374.46
519.07	41831.48
519.28	41153.77
519.49	41981.97
519.69	42142.12
519.90	42200.61
520.11	42346.67
520.32	42246.56
520.52	42677.05
520.73	42333.56
520.94	42910.02
521.15	42857.68
521.36	42429.82
521.56	43264.81
521.77	42564.65
521.98	43431.60
522.19	42764.54
522.39	43259.41
522.60	43206.98
522.81	43411.94
523.02	43223.77
523.22	43687.11
523.43	43944.74
523.64	43728.56
523.84	43901.73
524.05	44326.24
524.26	44274.46
524.47	43976.03
524.67	44241.70
524.88	44460.17
525.09	44815.62
525.30	44484.01
525.50	44561.26
525.71	44767.20
525.92	44832.58
526.13	45289.52
526.33	45115.85
526.54	44909.42
526.75	45230.70
526.95	45699.60
527.16	44802.35
527.37	45477.28
527.58	45714.68
527.78	45655.86
527.99	46021.79
528.20	46351.76
528.40	45895.64
528.61	45708.45
528.82	46255.75
529.03	46097.89
529.23	46145.32
529.44	46541.89
529.65	46562.21
529.85	46584.57
530.06	46515.92
530.27	46714.74
530.47	46363.31
530.68	47384.43
530.89	46405.17
531.09	47191.10
531.30	47023.82
531.51	46791.33
531.72	47389.75
531.92	47499.11
532.13	47765.51
532.34	47555.88
532.54	47559.32
532.75	47782.47
532.96	47639.77
533.16	48060.50
533.37	48167.57
533.58	47889.13
533.78	48317.73
533.99	48418.00
534.20	47910.84
534.40	48239.82
534.61	48466.49
534.82	48603.54
535.02	48748.29
535.23	48710.04
535.44	48929.33
535.64	48896.07
535.85	49033.29
536.06	49051.80
536.26	48869.37
536.47	49024.44
536.68	49607.70
536.88	48993.47
537.09	49665.29
537.29	49128.07
537.50	50009.10
537.71	49479.42
537.91	49670.86
538.12	49911.62
538.33	49678.32
538.53	50082.09
538.74	50193.50
538.95	50208.25
539.15	49855.75
539.36	50348.74
539.56	50648.15
539.77	50170.24
539.98	50315.56
540.18	50799.29
540.39	50428.20
540.60	50645.69
540.80	50951.17
541.01	50806.50
541.21	50900.87
541.42	51061.51
541.63	50951.41
541.83	51373.46
542.04	51303.58
542.25	51227.15
542.45	51444.98
542.66	51468.40
542.86	51672.05
543.07	50707.54
543.28	51848.10
543.48	51580.22
543.69	51916.91
543.89	51659.36
544.10	52240.08
544.31	52134.49
544.51	51923.13
544.72	52330.76
544.92	52082.55
545.13	52570.87
545.33	52350.18
545.54	52194.53
545.75	52519.67
545.95	52157.09
546.16	52236.23
546.36	52825.88
546.57	51906.91
546.78	51228.71
546.98	52002.92
547.19	51199.71
547.39	52397.12
547.60	52639.51
547.80	53342.30
548.01	53386.53
548.22	52942.04
548.42	53102.85
548.63	53391.12
548.83	53134.96
549.04	53331.73
549.24	52933.03
549.45	53246.70
549.65	53559.05
549.86	52961.70
550.07	53210.90
550.27	53614.10
550.48	53747.79
550.68	53615.58
550.89	53638.27
551.09	53974.79
551.30	53745.50
551.50	54069.32
551.71	53716.17
551.91	53670.63
552.12	53845.93
552.33	54265.85
552.53	53642.53
552.74	54517.83
552.94	54431.98
553.15	54221.69
553.35	54594.34
553.56	54152.88
553.76	54753.35
553.97	54191.06
554.17	54446.40
554.38	55212.75
554.58	54456.55
554.79	55100.03
554.99	54511.85
555.20	54657.83
555.40	55061.28
555.61	54788.65
555.81	54603.27
556.02	55562.87
556.22	55336.85
556.43	54993.70
556.63	55268.53
556.84	55227.98
557.04	55910.78
557.25	55160.65
557.45	55680.83
557.66	55463.25
557.86	55333.82
558.07	56096.40
558.27	55588.92
558.48	55531.66
558.68	55676.32
558.89	55710.32
559.09	55699.59
559.30	55393.70
559.50	55775.36
559.71	55337.84
559.91	56095.26
560.12	55870.14
560.32	55983.11
560.53	56080.18
560.73	55779.62
560.94	56317.17
561.14	55876.70
561.35	56545.48
561.55	56192.25
561.76	56466.68
561.96	55811.90
562.17	56402.94
562.37	56646.65
562.57	56369.03
562.78	56278.18
562.98	56616.92
563.19	56476.10
563.39	56699.74
563.60	56692.20
563.80	55999.17
564.01	56786.41
564.21	56452.83
564.42	56366.00
564.62	56561.87
564.82	56895.44
565.03	56585.21
565.23	56721.44
565.44	56909.12
565.64	56739.71
565.85	57152.99
566.05	56931.97
566.25	57239.91
566.46	56844.16
566.66	57023.64
566.87	57040.60
567.07	57035.52
567.28	57213.28
567.48	57601.58
567.68	56846.12
567.89	57875.76
568.09	57322.07
568.30	57347.22
568.50	57717.82
568.71	57582.49
568.91	57792.53
569.11	57274.72
569.32	57347.96
569.52	57525.64
569.73	56930.58
569.93	57537.35
570.13	57324.45
570.34	57289.88
570.54	57879.28
570.75	57648.35
570.95	57594.94
571.15	57441.02
571.36	57979.55
571.56	57438.31
571.77	57351.40
571.97	57023.81
572.17	57935.73
572.38	57815.88
572.58	58072.04
572.79	57770.50
572.99	57733.39
573.19	57791.63
573.40	57529.41
573.60	57687.10
573.81	57647.13
574.01	57904.60
574.21	57864.70
574.42	58039.27
574.62	57743.05
574.82	58323.86
575.03	57994.22
575.23	58465.08
575.43	58111.85
575.64	58100.22
575.84	58620.65
576.05	57966.36
576.25	58114.96
576.45	58015.43
576.66	58505.55
576.86	57986.02
577.06	58370.06
577.27	58181.40
577.47	58249.06
577.67	58192.21
577.88	57774.26
578.08	58436.33
578.28	58691.51
578.49	58397.91
578.69	58605.66
578.89	58297.40
579.10	58481.30
579.30	59151.15
579.50	58662.34
579.71	58215.07
579.91	58851.58
580.11	58476.88
580.32	58320.83
580.52	58325.66
580.72	58876.32
580.93	58264.06
581.13	58372.84
581.33	58884.18
581.54	58461.23
581.74	58638.34
581.94	58797.26
582.15	59071.69
582.35	58695.77
582.55	58817.33
582.76	58422.40
582.96	59062.68
583.16	58516.45
583.37	58880.00
583.57	58583.21
583.77	59098.89
583.97	57995.12
584.18	59272.15
584.38	58908.84
584.58	58688.72
584.79	59034.67
584.99	58786.37
585.19	58708.71
585.40	58695.03
585.60	59000.34
585.80	58554.21
586.00	58961.43
586.21	58896.22
586.41	59026.64
586.61	59248.72
586.82	59017.46
587.02	58731.40
587.22	59071.45
587.42	58375.22
587.63	59173.27
587.83	58494.08
588.03	58921.78
588.23	58546.02
588.44	58923.67
588.64	58634.49
588.84	58839.13
589.05	58968.15
589.25	59080.87
589.45	59070.71
589.65	58973.47
589.86	59243.80
590.06	59205.30
590.26	58798.33
590.46	59258.06
590.67	58432.56
590.87	59286.16
591.07	59450.65
591.27	58822.58
591.48	59326.05
591.68	58594.19
591.88	59721.55
592.08	58816.52
592.29	59530.52
592.49	59360.46
592.69	59609.41
592.89	59180.07
593.10	59393.14
593.30	59073.09
593.50	59790.61
593.70	58784.81
593.90	59709.84
594.11	59355.95
594.31	59451.47
594.51	59700.01
594.71	59584.42
594.92	59713.69
595.12	59271.90
595.32	59401.01
595.52	59589.09
595.72	58863.62
595.93	59728.68
596.13	59320.23
596.33	59037.37
596.53	59644.39
596.73	59537.73
596.94	59265.59
597.14	59685.76
597.34	59442.87
597.54	59736.22
597.74	59242.25
597.95	59350.54
598.15	59254.29
598.35	59462.94
598.55	59502.18
598.75	59356.03
598.96	60008.60
599.16	59523.23
599.36	59694.77
599.56	59531.34
599.76	59451.14
599.97	59960.02
600.17	59668.80
600.37	59879.17
600.57	59131.90
600.77	59994.43
600.97	59585.49
601.18	60209.87
601.38	59653.56
601.58	60017.20
601.78	59737.28
601.98	59549.12
602.18	59839.84
602.39	60159.41
602.59	59796.18
602.79	59501.36
602.99	59616.12
603.19	59629.80
603.39	59436.07
603.60	59555.67
603.80	59679.20
604.00	59542.64
604.20	59698.45
604.40	59905.87
604.60	59629.64
604.80	59580.74
605.01	59700.50
605.21	59453.93
605.41	59414.93
605.61	59049.08
605.81	59508.16
606.01	59949.78
606.21	59492.59
606.42	59947.40
606.62	59578.44
606.82	60075.20
607.02	59460.72
607.22	59739.08
607.42	59937.82
607.62	59251.91
